# Mains_Frequency_(Hz) =,60,,,,,,,,,,,,,,,,,,,,,,,,,,,
# Sample_Frequency_(Hz) =,300,,,,,,,,,,,,,,,,,,,,,,,,,,,
# Filter_Delay_(ms) =,56.7,,,,,,,,,,,,,,,,,,,,,,,,,,,
# Sensor_Data_Units =,uV,,,,,,,,,,,,,,,,,,,,,,,,,,,
# Headset_Name =,DSI-24 SN:3129,,,,,,,,,,,,,,,,,,,,,,,,,,,
# Data_Logger =,DSI-Streamer-v.1.08.120,,,,,,,,,,,,,,,,,,,,,,,,,,,
# Date =,8/13/2025,,,,,,,,,,,,,,,,,,,,,,,,,,,
# Time =, 12:21:15.311 ,,,,,,,,,,,,,,,,,,,,,,,,,,,
# Patient_ID =,X M 01-JAN-2000 X,,,,,,,,,,,,,,,,,,,,,,,,,,,
# Record_ID =,Startdate 13-AUG-2025 EEG_XX X X,,,,,,,,,,,,,,,,,,,,,,,,,,,
# Comments =,,,,,,,,,,,,,,,,,,,,,,,,,,,,
# Reference location:,Pz,,,,,,,,,,,,,,,,,,,,,,,,,,,
# Trigger Source,Wired,,,,,,,,,,,,,,,,,,,,,,,,,,,
# Channel_Number =,ch_1,ch_2,ch_3,ch_4,ch_5,ch_6,ch_7,ch_8,ch_9,ch_10,ch_11,ch_12,ch_13,ch_14,ch_15,ch_16,ch_17,ch_18,ch_19,ch_20,ch_21,ch_22,ch_23,ch_24,CMF,Trigger,Time_Offset,ADC_Status,ADC_Sequence,Event,Comments
Time,P3,C3,F3,Fz,F4,C4,P4,Cz,CM,A1,Fp1,Fp2,T3,T5,O1,O2,X3:,X2:REOG,F7,F8,X1:LEOG,A2,T6,T4,Pz,Trigger,Time_Offset,ADC_Status,ADC_Sequence,Event,Comments
0.0000,2.1,-53.9,52.1,12.6,26.4,-40.7,-37.1,-13.1,-892.5,-13.2,122.4,89.6,-51.2,-72.0,-36.5,-83.3,-9.9,-3422.1,105.2,-43.3,-2347.8,-37.8,-50.4,-66.1,0,0,6,0,8,0,
0.0033,23.7,15.9,96.7,75.0,68.0,14.7,14.7,87.5,-1264.4,22.4,163.1,122.4,-0.9,-18.6,13.7,-39.8,-9.6,-3360.0,147.1,15.5,-2284.2,4.5,-8.7,-38.0,0,0,12,0,9,0,
0.0067,-50.7,-68.3,33.2,-8.7,4.8,-58.1,-58.9,-16.1,-1041.3,-30.5,106.0,68.1,-74.3,-82.5,-53.2,-100.9,-9.9,-3430.5,86.0,-61.6,-2350.2,-69.8,-69.9,-88.5,0,0,18,0,10,0,
0.0100,28.2,5.1,92.5,57.9,67.7,1.2,7.5,45.1,-1190.0,23.0,159.8,123.9,4.8,-24.9,9.0,-42.5,-9.9,-3385.5,145.9,-0.6,-2303.1,0.3,-9.3,-35.0,0,0,24,0,11,0,
0.0133,-33.6,-26.9,60.4,34.8,27.6,-25.8,-20.9,57.9,-1338.8,-11.4,123.0,86.3,-34.1,-62.1,-28.1,-75.5,-9.9,-3428.7,116.0,-29.0,-2344.2,-44.1,-40.2,-75.0,0,0,30,0,12,0,
0.0167,-1.2,-35.0,67.9,23.7,42.6,-34.8,-33.5,5.7,-1041.3,-11.7,146.0,107.5,-36.2,-56.1,-26.9,-77.9,-9.6,-3426.0,125.0,-27.5,-2342.1,-27.3,-50.4,-51.4,0,0,36,0,13,0,
0.0200,25.5,-8.4,82.9,57.9,54.8,0.0,-1.5,53.2,-1264.4,14.1,154.1,122.4,-10.8,-40.5,-7.8,-57.2,-9.6,-3406.8,141.4,-12.3,-2323.5,-21.0,-30.3,-52.3,0,0,42,0,14,0,
0.0233,-38.4,-39.8,60.7,28.8,28.5,-30.9,-35.6,42.7,-1115.6,-10.2,132.0,89.6,-46.7,-67.5,-34.7,-84.8,-10.2,-3437.4,118.4,-34.7,-2350.5,-40.5,-60.6,-81.0,0,0,48,0,15,0,
0.0267,5.7,-24.5,82.0,42.9,58.1,-17.1,-17.9,15.2,-1041.3,3.3,161.0,126.0,-37.7,-46.8,-16.1,-66.8,-9.6,-3427.5,136.1,-19.1,-2337.6,-23.4,-33.6,-55.0,0,0,54,0,16,0,
0.0300,-18.9,-15.0,74.5,49.2,42.6,-20.4,-20.6,55.0,-1338.8,-3.6,142.7,105.1,-33.5,-67.8,-30.8,-81.5,-9.6,-3427.8,132.2,-13.4,-2343.3,-42.3,-49.8,-67.6,0,0,60,0,17,0,
0.0333,-0.3,-20.4,92.2,53.1,61.1,-9.0,-13.8,48.7,-966.9,-2.1,174.7,139.8,-12.0,-33.3,-18.8,-69.2,-9.6,-3395.1,151.3,-1.5,-2311.5,-28.2,-36.6,-50.2,0,0,66,0,18,0,
0.0367,-1.5,-44.0,72.7,30.3,39.9,-34.5,-37.7,-4.2,-1041.3,-40.4,161.6,121.5,-44.0,-65.1,-40.0,-91.1,-9.6,-3444.0,132.8,-24.8,-2359.2,-53.9,-61.8,-89.1,0,0,72,0,19,0,
0.0400,5.7,1.5,106.5,84.9,71.9,3.6,6.3,87.5,-1338.8,6.3,189.0,157.4,-1.2,-37.5,-2.1,-55.1,-9.9,-3402.0,169.3,23.6,-2312.7,-24.0,-21.3,-44.8,0,0,78,0,20,0,
0.0433,-33.3,-42.2,77.5,34.8,43.8,-39.8,-41.3,-0.3,-1041.3,-37.7,183.1,145.1,-53.3,-72.6,-42.7,-90.5,-9.6,-3433.5,140.5,-13.7,-2352.3,-53.9,-54.9,-83.4,0,0,84,0,21,0,
0.0467,8.7,-18.6,100.5,69.9,71.6,-6.3,-10.8,29.0,-1115.6,-8.1,207.2,185.1,-26.1,-57.0,-22.1,-71.3,-9.6,-3438.3,164.8,29.6,-2349.3,-33.9,-39.3,-57.4,0,0,90,0,22,0,
0.0500,12.6,-8.7,125.4,94.8,88.7,24.0,1.8,82.4,-1115.6,0.9,238.0,199.8,-12.9,-38.4,-4.2,-54.8,-9.9,-3406.8,199.0,50.2,-2315.4,-21.6,-24.0,-48.1,0,0,96,0,23,0,
0.0533,-15.3,-65.9,78.4,37.2,50.6,-59.6,-53.5,-19.7,-1041.3,-29.0,216.8,186.9,-63.5,-81.0,-46.6,-100.3,-9.9,-3471.0,154.9,11.4,-2377.5,-66.8,-69.9,-81.3,0,0,102,0,24,0,
0.0567,59.7,27.2,158.9,126.0,113.0,27.3,21.2,86.0,-1115.6,6.0,298.0,255.9,14.1,-18.0,17.0,-40.4,-9.9,-3402.0,237.9,87.0,-2319.6,-8.7,-7.5,-21.2,0,0,108,0,25,0,
0.0600,-29.4,-38.6,106.2,74.7,68.0,-36.0,-44.0,33.8,-1115.6,-33.5,252.3,229.9,-47.0,-74.7,-48.7,-98.8,-9.6,-3484.2,183.4,48.4,-2382.3,-62.6,-68.4,-98.0,0,0,114,0,26,0,
0.0633,42.6,-4.2,151.1,104.7,107.3,5.4,-10.8,21.2,-966.9,-9.9,308.2,272.9,-18.0,-40.5,-16.1,-64.4,-9.6,-3450.9,231.0,72.9,-2354.7,-39.0,-30.6,-44.2,0,0,120,0,27,0,
0.0667,49.2,10.8,163.7,137.7,113.3,-4.8,-10.5,82.4,-1041.3,10.2,332.1,301.0,-19.8,-48.3,-18.5,-71.9,-9.9,-3417.0,252.9,109.1,-2323.5,-33.6,-44.7,-53.5,0,0,126,0,28,0,
0.0700,16.5,-26.0,147.5,103.8,98.0,-28.8,-41.3,27.5,-818.1,-8.1,329.7,295.6,-43.4,-68.4,-41.5,-92.8,-9.9,-3436.2,234.6,87.0,-2345.4,-49.4,-60.6,-68.4,0,0,132,0,29,0,
0.0733,72.0,12.6,178.4,134.7,130.1,10.8,-9.9,40.9,-892.5,-3.3,370.3,334.2,-0.6,-39.0,-14.9,-65.9,-9.9,-3425.4,268.5,117.1,-2327.1,-29.7,-34.5,-44.8,0,0,138,0,30,0,
0.0767,14.7,-8.4,160.1,133.2,111.2,-6.3,-21.5,70.8,-1190.0,-31.1,352.7,323.7,-20.7,-58.8,-34.1,-86.0,-9.6,-3431.1,251.7,115.9,-2331.6,-51.5,-54.6,-60.7,0,0,144,0,31,0,
0.0800,42.0,-12.0,175.1,124.2,122.6,-10.5,-19.1,27.2,-743.8,-9.3,377.2,339.2,-9.0,-42.3,-21.5,-73.1,-9.6,-3441.3,269.4,112.4,-2340.3,-36.3,-38.1,-45.7,0,0,150,0,32,0,
0.0833,64.8,-8.7,170.3,131.7,112.7,-9.0,-23.3,35.2,-966.9,-30.2,369.7,338.0,-23.1,-61.2,-38.0,-90.8,-9.9,-3452.4,267.6,115.3,-2353.8,-58.4,-54.3,-64.0,0,0,156,0,33,0,
0.0867,55.2,11.1,200.2,159.3,136.0,12.6,-0.6,88.1,-1041.3,-2.4,406.7,360.1,6.9,-36.9,-12.6,-64.7,-9.9,-3426.3,302.4,133.0,-2323.8,-39.0,-30.6,-40.1,0,0,162,0,34,0,
0.0900,47.4,-29.6,169.4,114.9,109.4,-23.1,-39.8,1.8,-743.8,-41.0,383.4,342.2,-38.6,-70.8,-48.7,-97.6,-10.2,-3462.9,267.6,95.3,-2360.4,-71.6,-62.1,-75.3,0,0,168,0,35,0,
0.0933,69.3,22.5,205.6,169.8,147.1,24.9,5.7,86.9,-1115.6,8.7,414.8,376.6,-10.5,-38.7,-10.5,-62.9,-9.6,-3421.5,301.2,152.4,-2313.9,-33.9,-31.2,-43.3,0,0,174,0,36,0,
0.0967,41.7,-9.3,193.6,153.9,141.1,3.3,-16.2,64.8,-818.1,-35.9,411.5,384.3,-23.1,-51.9,-32.9,-82.1,-9.9,-3451.8,287.4,151.5,-2343.6,-51.2,-45.0,-50.5,0,0,180,0,37,0,
0.1000,69.9,-22.2,182.2,131.4,121.4,-5.7,-29.3,14.0,-892.5,-31.7,401.1,363.1,-38.9,-78.9,-43.3,-94.3,-9.3,-3474.3,279.3,110.9,-2368.2,-66.2,-60.9,-83.1,0,0,186,0,38,0,
0.1033,94.2,31.4,226.5,194.4,163.9,37.2,21.2,115.6,-1041.3,0.6,445.3,405.2,14.4,-34.2,1.5,-49.1,-9.6,-3413.7,331.7,173.9,-2309.1,-36.6,-12.9,-29.3,0,0,192,0,39,0,
0.1067,24.9,-45.8,164.3,112.8,103.1,-44.9,-63.4,9.0,-743.8,-59.8,390.9,346.1,-59.9,-82.2,-59.8,-112.6,-9.9,-3487.5,266.7,95.6,-2379.6,-79.7,-91.8,-83.4,0,0,198,0,40,0,
0.1100,97.5,24.2,218.8,172.8,158.2,29.4,5.4,61.5,-892.5,-14.4,439.6,398.4,-6.9,-34.5,-5.4,-56.3,-9.3,-3435.6,316.2,153.9,-2333.7,-38.1,-29.1,-37.1,0,0,204,0,41,0,
0.1133,35.7,14.1,184.6,147.9,124.4,-3.9,-27.2,73.2,-966.9,-28.4,396.6,361.6,-44.6,-77.4,-33.8,-90.5,-9.6,-3465.6,282.3,133.0,-2349.3,-70.7,-66.0,-80.7,0,0,210,0,42,0,
0.1167,65.4,-40.1,176.0,126.3,129.5,-2.7,-33.5,14.9,-743.8,-31.1,406.7,371.8,-29.6,-66.6,-35.0,-83.9,-9.3,-3453.9,278.7,117.4,-2345.4,-54.5,-59.1,-72.6,0,0,216,0,43,0,
0.1200,95.1,-5.1,200.2,165.0,144.1,-1.8,-5.7,67.2,-1041.3,-6.0,421.4,387.9,-9.3,-50.4,-10.2,-59.9,-9.6,-3435.3,302.1,156.6,-2324.7,-43.5,-40.2,-44.5,0,0,222,0,44,0,
0.1233,36.3,-15.9,163.4,127.5,112.4,-26.4,-40.1,55.6,-1041.3,-53.5,381.6,348.8,-38.0,-76.8,-42.7,-94.3,-9.6,-3459.3,261.0,118.3,-2349.3,-76.4,-73.5,-81.6,0,0,228,0,45,0,
0.1267,75.0,-27.2,179.5,130.5,131.9,-8.4,-20.9,25.7,-743.8,-18.8,400.2,367.6,-19.8,-42.9,-20.9,-74.3,-9.6,-3454.8,278.4,124.6,-2341.2,-56.0,-49.2,-64.6,0,0,234,0,46,0,
0.1300,49.8,-15.9,164.6,134.7,113.9,-15.9,-26.3,62.4,-966.9,-44.2,370.3,338.3,-32.6,-69.6,-32.6,-85.4,-9.9,-3475.5,262.5,121.0,-2365.5,-75.8,-65.4,-74.1,0,0,240,0,47,0,
0.1333,67.2,-12.6,172.4,128.4,121.4,-19.5,-19.1,57.6,-743.8,-34.7,376.3,350.3,-15.3,-55.2,-18.2,-71.9,-9.6,-3451.8,266.4,121.0,-2333.7,-59.3,-51.6,-69.3,0,0,246,0,48,0,
0.1367,54.3,-40.4,138.6,90.6,85.1,-39.8,-44.9,-2.7,-892.5,-55.3,331.2,304.9,-53.9,-79.5,-43.0,-99.4,-9.6,-3507.3,223.0,71.1,-2383.8,-102.5,-78.0,-93.0,0,0,252,0,49,0,
0.1400,63.6,12.3,178.7,149.7,125.9,15.9,4.5,96.8,-1041.3,-19.7,369.1,336.9,-7.5,-49.8,-14.9,-62.9,-9.6,-3444.6,276.3,123.7,-2322.6,-52.1,-41.1,-63.1,0,0,258,0,50,0,
0.1433,16.5,-44.0,136.2,87.9,83.9,-39.8,-45.8,6.9,-743.8,-55.3,329.1,295.9,-50.9,-81.3,-51.4,-101.2,-9.6,-3490.8,226.6,72.9,-2369.7,-90.2,-74.7,-79.5,0,0,264,0,51,0,
0.1467,50.4,-11.7,145.1,107.4,96.2,-14.4,-17.3,33.8,-1041.3,-46.0,326.4,297.4,-24.9,-69.3,-33.2,-83.6,-9.6,-3479.4,232.2,87.9,-2358.3,-75.5,-55.5,-72.9,0,0,270,0,52,0,
0.1500,44.1,-5.7,161.9,131.1,112.7,3.0,-3.0,84.8,-892.5,-17.9,338.0,310.0,-25.5,-60.6,-14.6,-68.9,-9.9,-3441.6,245.7,112.7,-2318.4,-47.0,-45.3,-55.6,0,0,276,0,53,0,
0.1533,15.0,-65.3,111.0,66.6,73.4,-49.1,-55.3,-20.9,-743.8,-66.4,293.8,264.3,-77.3,-99.9,-63.4,-112.6,-9.6,-3519.3,193.6,53.5,-2391.0,-93.8,-86.7,-92.1,0,0,282,0,54,0,
0.1567,83.1,26.6,185.8,154.5,136.9,30.0,20.6,92.9,-1115.6,-0.9,357.2,324.6,-3.6,-37.2,4.5,-50.9,-9.9,-3430.8,267.3,127.3,-2296.8,-22.8,-21.0,-35.0,0,0,288,0,55,0,
0.1600,-9.9,-38.9,126.3,91.8,82.1,-27.3,-42.8,40.6,-1115.6,-54.4,298.6,268.5,-57.2,-90.0,-60.1,-108.7,-9.9,-3477.0,212.5,75.6,-2341.5,-81.5,-77.4,-81.9,0,0,294,0,56,0,
0.1633,56.1,-6.6,157.1,110.4,112.7,-5.4,-13.2,28.1,-818.1,-4.2,326.1,295.3,-30.8,-56.4,-22.7,-68.3,-9.6,-3452.1,240.0,90.8,-2315.7,-38.7,-39.0,-52.6,0,0,300,0,57,0,
0.1667,58.2,10.8,160.1,134.4,115.4,17.1,0.0,88.1,-966.9,-4.8,315.6,286.7,-20.1,-51.9,-18.2,-67.7,-9.6,-3430.8,240.9,99.5,-2292.9,-38.1,-36.0,-53.8,0,0,306,0,58,0,
0.1700,17.7,-32.6,132.6,92.4,92.0,-18.0,-30.5,36.4,-892.5,-35.0,293.3,265.8,-28.2,-69.6,-41.8,-88.4,-9.3,-3456.9,212.5,69.3,-2313.6,-59.6,-52.8,-66.4,0,0,312,0,59,0,
0.1733,70.8,6.3,158.0,118.2,116.6,5.1,-1.8,48.1,-892.5,6.0,312.7,282.2,-4.5,-40.8,-10.5,-61.1,-9.9,-3443.4,237.6,90.2,-2295.6,-37.2,-31.5,-44.2,0,0,318,0,60,0,
0.1767,14.7,-6.9,135.3,105.6,85.4,-11.7,-17.9,79.8,-1041.3,-10.5,284.6,252.6,-27.9,-56.7,-28.7,-78.5,-9.6,-3455.1,217.3,67.5,-2307.9,-49.1,-53.1,-76.5,0,0,324,0,61,0,
0.1800,36.6,-23.6,131.1,87.3,91.1,-13.2,-19.4,29.0,-818.1,-8.7,284.9,255.0,-18.3,-30.0,-22.7,-72.8,-9.6,-3429.0,207.4,55.3,-2285.1,-47.0,-38.1,-60.4,0,0,330,0,62,0,
0.1833,54.3,-14.4,120.6,86.7,79.7,0.9,-20.9,38.5,-966.9,-30.2,263.7,236.2,-29.0,-58.5,-29.9,-83.9,-9.9,-3448.2,197.2,49.3,-2298.9,-53.3,-59.7,-102.5,0,0,336,0,63,0,
0.1867,41.1,5.7,140.9,107.7,94.1,6.9,-6.9,82.1,-966.9,-2.7,281.6,248.5,-13.5,-35.4,-6.9,-65.3,-9.6,-3437.1,216.7,68.4,-2276.4,-44.1,-38.7,-55.6,0,0,342,0,64,0,
0.1900,23.4,-46.4,98.8,50.7,53.6,-69.8,-51.7,-12.5,-818.1,-34.7,247.3,211.1,-47.9,-72.9,-41.5,-95.8,-9.6,-3477.6,177.1,15.2,-2317.8,-76.1,-70.8,-81.3,0,0,348,0,65,0,
0.1933,40.5,-6.6,126.6,97.2,79.4,-3.3,3.3,71.4,-1338.8,-8.4,260.7,226.1,-15.9,-41.4,-5.7,-63.5,-9.9,-3449.4,202.9,48.7,-2277.6,-50.0,-36.0,-72.6,0,0,354,0,66,0,
0.1967,6.6,-27.5,112.2,74.4,68.9,-28.2,-22.7,46.9,-966.9,-20.9,247.9,214.7,-35.9,-60.6,-27.2,-79.1,-9.6,-3456.3,187.0,33.5,-2287.8,-55.7,-54.0,-53.2,0,0,360,0,67,0,
0.2000,35.4,-43.1,93.7,51.3,54.5,-43.1,-35.0,-6.9,-892.5,-31.4,227.0,198.3,-46.4,-73.2,-38.6,-91.1,-9.9,-3468.9,165.7,10.8,-2300.4,-65.9,-69.3,-89.1,0,0,366,0,68,0,
0.2033,55.5,9.9,145.1,121.8,107.9,27.3,24.2,100.4,-1115.6,-3.3,270.3,245.5,4.8,-33.9,0.9,-49.4,-10.2,-3393.9,220.0,78.0,-2219.1,-15.0,-15.9,-24.5,0,0,372,0,69,0,
0.2067,-18.9,-67.4,82.3,41.1,42.9,-59.0,-52.9,-4.5,-966.9,-43.9,215.3,186.3,-60.2,-98.7,-65.7,-113.5,-9.6,-3479.4,153.4,6.0,-2300.7,-68.9,-83.1,-90.3,0,0,378,0,70,0,
0.2100,54.9,4.8,140.3,103.5,105.5,18.9,15.0,55.0,-1115.6,13.2,264.3,233.8,-15.3,-41.7,-8.1,-51.2,-9.3,-3425.4,209.2,55.9,-2248.2,-18.0,-21.6,-31.4,0,0,384,0,71,0,
0.2133,-4.5,8.4,109.8,82.5,66.5,-12.0,-18.2,69.9,-1264.4,-20.6,226.7,199.2,-43.7,-78.0,-41.8,-86.9,-9.9,-3454.2,179.8,31.7,-2278.2,-49.4,-57.3,-72.6,0,0,390,0,72,0,
0.2167,22.2,-59.3,103.8,57.3,65.6,-25.8,-32.0,5.7,-818.1,-11.4,234.4,199.5,-39.2,-73.5,-33.5,-83.0,-9.9,-3441.6,178.3,17.0,-2268.6,-42.9,-53.1,-62.5,0,0,396,0,73,0,
0.2200,53.4,7.5,128.4,94.8,81.8,-4.8,-3.0,62.7,-1190.0,1.5,243.4,208.4,0.3,-48.0,-12.9,-62.9,-9.9,-3408.3,199.0,42.1,-2229.9,-35.1,-36.6,-49.0,0,0,402,0,74,0,
0.2233,-12.6,-38.6,90.7,58.5,51.5,-37.2,-37.1,40.3,-1115.6,-32.9,207.5,177.7,-32.3,-73.5,-42.1,-88.7,-9.6,-3432.3,162.4,15.2,-2249.7,-59.0,-62.1,-74.7,0,0,408,0,75,0,
0.2267,36.0,-27.8,106.8,64.8,76.1,-19.2,-19.4,13.7,-966.9,10.8,227.6,201.6,-13.5,-31.5,-11.1,-64.4,-9.6,-3412.8,177.7,27.2,-2230.8,-28.2,-38.7,-54.1,0,0,414,0,76,0,
0.2300,9.3,-26.6,88.0,62.7,52.1,-24.6,-22.7,50.8,-1264.4,-34.1,197.4,170.5,-34.4,-54.0,-21.8,-77.6,-9.6,-3429.6,156.4,7.8,-2248.5,-53.0,-54.3,-70.8,0,0,420,0,77,0,
0.2333,27.6,-27.2,99.7,61.5,64.4,-12.6,-18.8,41.5,-966.9,1.8,215.3,184.3,-15.9,-40.2,-3.0,-60.8,-9.3,-3423.0,166.3,16.7,-2235.0,-30.9,-38.1,-54.7,0,0,426,0,78,0,
0.2367,26.7,-43.7,74.5,33.0,38.7,-35.4,-38.6,-9.3,-966.9,-19.1,186.6,154.1,-47.6,-63.6,-25.7,-79.4,-9.6,-3453.6,139.3,-17.6,-2263.5,-55.1,-56.4,-75.3,0,0,432,0,79,0,
0.2400,30.3,4.8,110.4,84.3,69.5,0.6,0.6,82.7,-1190.0,12.6,213.5,185.7,-2.4,-28.5,11.7,-49.7,-9.3,-3400.2,178.6,30.5,-2214.0,-16.5,-28.8,-49.3,0,0,438,0,80,0,
0.2433,-12.9,-51.8,68.8,26.7,38.4,-38.3,-39.8,-0.9,-1041.3,-17.9,183.1,151.1,-53.0,-55.8,-31.7,-86.6,-9.6,-3439.8,134.9,-16.1,-2257.5,-47.6,-60.6,-75.9,0,0,444,0,81,0,
0.2467,29.1,-17.4,91.0,58.5,57.8,-12.0,-12.6,27.5,-1041.3,-6.9,194.1,168.4,-32.9,-43.8,-17.0,-70.4,-9.9,-3421.2,151.3,11.4,-2238.6,-33.0,-44.4,-58.0,0,0,450,0,82,0,
0.2500,26.4,-8.4,108.0,79.8,68.0,2.7,5.7,79.2,-1041.3,8.4,209.0,178.3,-13.8,-42.0,-4.8,-56.9,-9.6,-3386.4,173.8,29.0,-2208.6,-18.0,-29.7,-43.3,0,0,456,0,83,0,
0.2533,-13.2,-68.3,54.8,11.1,26.1,-51.8,-49.4,-30.2,-892.5,-47.2,160.4,134.4,-58.4,-85.5,-58.9,-108.4,-9.6,-3474.6,112.1,-37.9,-2298.3,-69.8,-79.8,-90.0,0,0,462,0,84,0,
0.2567,48.3,15.6,123.0,91.8,87.5,21.3,23.6,79.5,-1264.4,5.4,217.4,187.8,1.8,-29.1,2.7,-43.4,-9.3,-3418.5,183.1,36.2,-2242.5,-13.2,-21.0,-28.7,0,0,468,0,85,0,
0.2600,-47.7,-65.3,57.5,29.1,33.0,-36.0,-39.2,21.8,-1264.4,-34.4,158.9,134.4,-63.5,-92.7,-55.9,-100.6,-9.6,-3469.2,119.3,-17.0,-2293.5,-73.7,-80.7,-99.2,0,0,474,0,86,0,
0.2633,16.2,-24.2,90.1,50.1,63.8,10.2,-6.9,11.4,-1041.3,-11.4,192.0,161.3,-35.6,-60.9,-25.1,-68.9,-9.9,-3444.0,151.3,-3.6,-2282.7,-52.4,-48.3,-64.3,0,0,480,0,87,0,
0.2667,21.3,-6.6,91.6,69.9,60.8,-22.2,-1.5,65.4,-1264.4,-10.2,184.8,162.2,-30.2,-62.7,-21.5,-65.6,-9.6,-3454.2,153.4,20.0,-2284.2,-26.4,-45.6,-54.4,0,0,486,0,88,0,
0.2700,-21.3,-54.5,67.3,32.1,40.2,-36.9,-32.0,14.6,-966.9,-17.6,169.3,145.7,-49.7,-84.9,-46.3,-86.6,-9.9,-3454.8,127.7,-12.8,-2297.7,-52.4,-62.4,-74.7,0,0,492,0,89,0,
0.2733,36.0,-16.5,92.8,59.1,63.2,-7.8,-1.2,27.8,-1041.3,0.0,193.5,166.3,-19.2,-50.4,-12.6,-59.6,-9.9,-3453.3,152.5,8.1,-2304.3,-24.0,-36.6,-48.7,0,0,498,0,90,0,
0.2767,-24.0,-30.5,74.5,54.0,41.7,-21.6,-23.0,58.8,-1264.4,-29.0,169.0,138.6,-28.7,-74.4,-33.2,-81.5,-9.3,-3452.4,137.8,-2.1,-2308.2,-51.2,-60.0,-71.4,0,0,504,0,91,0,
0.2800,3.3,-38.3,83.8,47.1,59.0,-11.7,-18.2,14.3,-892.5,3.9,185.1,156.5,-28.4,-58.5,-23.6,-70.1,-9.6,-3453.9,143.2,-4.2,-2311.5,-34.2,-40.5,-59.2,0,0,510,0,92,0,
0.2833,21.0,-28.4,74.8,42.9,40.8,-24.0,-29.0,21.8,-1190.0,-29.0,163.9,136.8,-32.9,-71.7,-34.7,-85.4,-10.2,-3484.2,136.6,-15.5,-2336.1,-54.5,-58.2,-78.3,0,0,516,0,93,0,
0.2867,13.2,-11.1,95.5,69.6,64.4,-5.4,-5.4,72.0,-1264.4,9.6,189.6,161.9,-13.8,-42.9,-10.2,-60.5,-9.6,-3413.4,158.2,22.1,-2283.0,-22.2,-32.1,-52.3,0,0,522,0,94,0,
0.2900,-8.1,-55.4,53.3,11.7,22.2,-53.6,-50.8,-23.9,-966.9,-30.2,148.7,119.2,-56.3,-78.0,-48.1,-95.8,-9.6,-3474.6,113.9,-41.2,-2345.7,-57.5,-68.1,-81.9,0,0,528,0,95,0,
0.2933,13.5,-6.0,84.4,63.3,53.6,-6.9,-5.7,56.8,-1190.0,-1.2,174.1,143.6,-25.5,-43.8,-4.8,-61.1,-9.6,-3449.1,147.7,-4.5,-2314.8,-32.7,-39.0,-51.4,0,0,534,0,96,0,
0.2967,-22.8,-42.2,64.3,30.9,37.8,-24.6,-24.8,29.3,-1115.6,-16.7,157.1,128.1,-46.4,-63.0,-26.6,-76.4,-9.6,-3461.4,130.7,-21.5,-2329.5,-45.6,-51.6,-65.8,0,0,540,0,97,0,
0.3000,3.0,-58.4,47.3,5.1,17.4,-54.5,-44.0,-26.9,-818.1,-33.8,139.5,111.1,-61.4,-76.5,-37.4,-91.1,-9.9,-3474.0,108.5,-46.0,-2352.0,-58.4,-73.8,-104.0,0,0,546,0,98,0,
0.3033,27.9,4.2,96.4,70.2,63.2,7.5,14.4,78.3,-1264.4,16.1,178.9,150.2,-0.6,-23.7,10.8,-47.9,-9.6,-3426.9,160.0,12.3,-2304.9,-15.9,-24.6,-47.5,0,0,552,0,99,0,
0.3067,-51.0,-88.3,27.8,-12.0,-0.9,-71.3,-59.8,-31.7,-966.9,-31.1,123.6,93.2,-76.7,-88.8,-55.6,-106.0,-9.3,-3479.1,92.9,-61.6,-2356.5,-71.6,-87.6,-107.0,0,0,558,0,100,0,
0.3100,27.6,2.1,86.5,50.4,55.7,-3.3,8.7,27.5,-1115.6,1.5,173.2,146.6,-23.7,-38.7,6.0,-44.9,-9.9,-3435.0,145.0,-9.0,-2319.3,-25.5,-20.4,-53.5,0,0,564,0,101,0,
0.3133,-32.1,-43.7,62.8,37.5,31.5,-29.1,-22.1,43.9,-1190.0,-15.8,144.5,121.5,-60.2,-67.8,-23.9,-74.9,-9.9,-3447.0,123.5,-14.0,-2328.3,-38.4,-54.3,-57.7,0,0,570,0,102,0,
0.3167,-3.9,-67.1,59.0,19.2,34.5,-30.6,-31.4,-15.2,-892.5,-18.2,151.1,128.4,-62.0,-63.9,-23.9,-73.7,-9.6,-3473.4,119.9,-26.6,-2355.0,-37.8,-52.2,-72.9,0,0,576,0,103,0,
0.3200,24.9,-17.4,87.1,60.9,60.2,4.2,6.6,47.5,-1264.4,14.9,171.7,149.0,-13.8,-44.1,3.9,-44.0,-9.9,-3458.1,147.7,5.7,-2343.9,-23.7,-25.5,-43.0,0,0,582,0,104,0,
0.3233,-34.5,-53.3,62.5,32.1,34.5,-35.7,-27.8,33.2,-1190.0,-26.3,147.8,121.5,-38.9,-69.0,-28.7,-77.6,-9.6,-3483.9,120.8,-18.5,-2370.0,-48.2,-56.4,-74.4,0,0,588,0,105,0,
0.3267,13.8,-33.8,87.7,45.0,60.8,-15.3,-7.2,8.7,-892.5,6.9,175.3,152.9,-21.9,-41.1,-0.3,-57.2,-9.6,-3440.7,143.5,-6.0,-2329.8,-14.1,-35.4,-54.1,0,0,594,0,106,0,
0.3300,-3.3,-12.0,82.0,54.9,47.0,-8.1,-11.1,53.5,-1338.8,-6.3,161.0,135.0,-21.9,-53.7,-15.8,-72.5,-9.9,-3452.7,140.5,-3.9,-2341.8,-39.0,-49.2,-69.0,0,0,600,0,107,0,
0.3333,10.5,-20.4,94.6,60.0,70.7,11.7,-2.7,48.1,-1115.6,17.0,181.9,159.2,-15.0,-41.4,-12.9,-59.6,-9.6,-3411.3,154.6,10.5,-2299.5,-9.3,-36.6,-49.6,0,0,606,0,108,0,
0.3367,10.2,-42.5,67.0,29.7,39.9,-39.8,-24.5,-3.9,-1190.0,-12.3,151.7,131.4,-39.2,-59.4,-26.0,-78.2,-9.6,-3458.4,123.2,-18.2,-2346.9,-36.9,-51.6,-55.9,0,0,612,0,109,0,
0.3400,13.5,7.8,102.6,76.8,71.9,7.2,10.5,86.9,-1264.4,6.3,178.3,152.9,4.2,-26.7,5.1,-52.4,-9.3,-3425.7,162.1,25.4,-2309.7,-10.2,-30.0,-39.8,0,0,618,0,110,0,
0.3433,-27.6,-47.3,69.1,23.4,36.6,-39.5,-37.1,1.5,-1115.6,-0.6,154.7,126.0,-41.6,-59.1,-30.5,-86.9,-9.6,-3449.1,128.9,-25.4,-2335.8,-38.7,-59.4,-61.0,0,0,624,0,111,0,
0.3467,11.7,-18.9,78.1,46.8,53.3,-2.7,-9.0,26.0,-1115.6,3.9,160.1,133.2,-24.9,-35.4,-13.1,-71.9,-9.9,-3450.9,139.3,-9.0,-2339.4,-32.1,-48.6,-52.3,0,0,630,0,112,0,
0.3500,12.6,-5.1,92.8,66.9,62.6,0.9,1.5,74.4,-1190.0,25.4,172.3,145.1,-10.2,-24.0,1.5,-55.1,-9.6,-3414.3,155.8,12.6,-2300.1,-10.2,-33.9,-44.5,0,0,636,0,113,0,
0.3533,-25.2,-67.7,40.1,-4.5,13.2,-53.0,-50.5,-33.8,-966.9,-36.2,126.0,98.5,-67.7,-75.9,-41.5,-96.1,-9.6,-3482.4,101.0,-53.2,-2370.3,-52.1,-70.5,-78.0,0,0,642,0,114,0,
0.3567,39.3,9.9,101.1,79.8,78.5,19.5,21.8,68.7,-1264.4,38.0,181.3,159.5,0.9,-11.7,25.4,-34.1,-9.6,-3419.4,161.2,31.7,-2304.3,9.9,-7.8,-27.8,0,0,648,0,115,0,
0.3600,-51.3,-59.9,47.6,14.1,19.5,-39.5,-41.6,16.1,-1190.0,-21.8,130.8,103.9,-57.5,-66.0,-36.2,-90.8,-9.6,-3479.4,107.0,-32.9,-2360.1,-48.5,-65.7,-88.2,0,0,654,0,116,0,
0.3633,7.2,-37.7,68.2,30.0,45.8,-6.9,-13.2,-4.5,-1041.3,10.2,154.4,127.5,-34.1,-46.2,-12.6,-59.6,-9.9,-3438.9,128.3,-24.8,-2334.0,-23.7,-35.4,-52.3,0,0,660,0,117,0,
0.3667,13.2,-18.6,78.7,53.4,47.0,-12.3,-2.7,56.8,-1115.6,-3.0,152.3,123.3,-27.6,-45.0,-3.3,-55.4,-9.6,-3447.6,136.9,-5.7,-2332.5,-24.0,-33.0,-44.2,0,0,666,0,118,0,
0.3700,-27.3,-56.3,50.3,10.8,22.2,-47.9,-38.6,0.6,-1115.6,-23.0,130.5,103.6,-50.9,-72.6,-34.4,-79.7,-9.9,-3479.4,108.5,-46.3,-2367.3,-45.0,-59.1,-81.9,0,0,672,0,119,0,
0.3733,27.6,-19.8,80.8,39.6,51.5,-16.2,-5.7,12.8,-1115.6,1.2,155.6,128.1,-17.7,-41.4,-4.2,-53.9,-9.6,-3461.4,139.0,-19.1,-2346.6,-29.7,-33.3,-52.3,0,0,678,0,120,0,
0.3767,-33.6,-23.1,53.0,28.2,23.1,-33.0,-21.8,40.6,-1338.8,-23.6,124.2,99.4,-57.5,-70.2,-30.2,-79.4,-9.6,-3445.2,107.6,-30.2,-2332.2,-56.9,-57.6,-77.4,0,0,684,0,121,0,
0.3800,-10.2,-57.2,59.8,18.9,38.7,-25.8,-20.0,-3.6,-966.9,3.0,145.4,118.3,-34.1,-50.7,-14.9,-62.9,-9.9,-3449.7,118.1,-35.9,-2336.1,-39.3,-44.7,-64.0,0,0,690,0,122,0,
0.3833,9.3,-50.9,55.1,22.5,23.1,-35.7,-23.6,9.3,-1190.0,-16.4,130.5,101.2,-43.1,-68.4,-28.7,-73.7,-9.6,-3472.8,114.5,-39.1,-2351.7,-41.4,-53.7,-75.3,0,0,696,0,123,0,
0.3867,2.1,-20.1,84.1,52.8,48.8,-14.1,0.3,60.6,-1115.6,6.6,156.5,130.5,-18.9,-40.5,-4.8,-46.7,-9.9,-3416.1,139.9,-3.3,-2304.9,-14.4,-28.5,-53.8,0,0,702,0,124,0,
0.3900,-11.1,-62.0,45.2,1.2,15.9,-53.0,-41.0,-32.6,-1041.3,-19.1,129.9,98.8,-54.2,-69.9,-39.1,-79.1,-9.6,-3464.1,105.8,-52.3,-2355.6,-45.3,-60.3,-92.7,0,0,708,0,125,0,
0.3933,15.3,-4.8,87.1,60.3,54.5,-12.0,3.9,54.4,-1264.4,12.9,159.8,132.3,-16.5,-36.9,2.4,-42.8,-9.9,-3425.4,144.4,-1.5,-2312.1,-12.9,-21.9,-39.8,0,0,714,0,126,0,
0.3967,-16.5,-17.7,68.8,32.7,39.3,-18.6,-22.4,30.8,-966.9,3.3,142.4,113.8,-35.3,-51.3,-20.3,-63.5,-9.9,-3436.8,125.0,-26.3,-2321.1,-30.6,-43.8,-73.2,0,0,720,0,127,0,
0.4000,12.0,-56.9,51.5,12.0,23.4,-47.0,-38.3,-25.1,-892.5,-17.3,132.6,104.5,-44.6,-64.8,-32.6,-76.7,-9.6,-3454.2,109.1,-45.7,-2338.2,-40.5,-58.5,-85.5,0,0,726,0,128,0,
0.4033,34.2,5.7,101.7,76.2,67.1,0.6,17.9,80.3,-1190.0,37.4,173.5,142.7,3.3,-11.7,14.3,-30.9,-9.6,-3393.9,166.9,13.7,-2280.0,-9.6,-6.3,-43.9,0,0,732,0,129,0,
0.4067,-39.0,-80.5,28.4,-7.5,3.6,-68.0,-61.3,-29.6,-1115.6,-24.2,111.4,83.0,-68.0,-79.2,-51.7,-98.5,-10.2,-3487.5,86.9,-63.6,-2370.6,-61.4,-85.2,-84.0,0,0,738,0,130,0,
0.4100,33.6,-5.1,86.2,48.0,53.6,-14.4,-2.1,22.7,-1115.6,21.2,161.3,130.5,-5.4,-29.4,9.6,-43.1,-9.6,-3456.6,141.7,-14.3,-2344.5,-17.7,-28.5,-58.3,0,0,744,0,131,0,
0.4133,-24.6,-29.0,59.3,30.9,26.1,-29.4,-26.0,40.6,-1264.4,-14.4,128.7,102.7,-23.7,-57.6,-20.0,-72.8,-9.9,-3488.4,116.3,-21.2,-2366.4,-42.6,-59.1,-86.1,0,0,750,0,132,0,
0.4167,1.5,-58.4,50.0,8.7,25.2,-47.0,-35.3,-20.6,-743.8,-8.1,131.1,102.1,-48.8,-56.4,-22.4,-72.5,-9.9,-3475.5,109.7,-50.2,-2359.5,-38.7,-51.6,-76.5,0,0,756,0,133,0,
0.4200,31.2,-11.7,78.4,49.2,49.7,-13.8,0.9,40.9,-1190.0,7.5,152.6,125.7,-20.7,-40.5,-0.3,-49.1,-9.6,-3426.6,138.7,-14.3,-2306.7,-11.4,-30.6,-46.6,0,0,762,0,134,0,
0.4233,-35.1,-53.9,47.3,17.4,21.6,-42.2,-29.6,24.2,-1264.4,-21.8,123.9,97.9,-47.9,-71.1,-33.5,-81.5,-9.3,-3459.6,105.5,-38.5,-2338.2,-48.2,-52.8,-64.9,0,0,768,0,135,0,
0.4267,13.2,-29.6,72.4,30.0,47.6,-21.9,-13.2,-2.1,-966.9,4.8,152.3,124.5,-21.9,-42.3,-7.2,-57.8,-9.6,-3441.6,128.6,-21.2,-2324.7,-21.3,-34.5,-51.7,0,0,774,0,136,0,
0.4300,-11.7,-21.9,61.3,38.4,34.2,-28.5,-21.2,35.2,-1413.1,-19.4,132.9,105.4,-31.7,-60.9,-22.1,-77.0,-9.6,-3465.0,117.5,-22.7,-2349.6,-47.3,-53.7,-71.4,0,0,780,0,137,0,
0.4333,2.4,-33.8,73.3,42.3,50.6,-23.1,-14.7,28.7,-966.9,11.1,153.5,128.1,-26.4,-40.2,-3.9,-59.6,-9.6,-3440.7,135.5,-10.2,-2322.6,-12.3,-38.1,-51.1,0,0,786,0,138,0,
0.4367,3.6,-46.4,54.8,16.5,27.9,-41.3,-34.1,-16.1,-1115.6,-3.9,133.8,106.6,-48.2,-71.1,-35.9,-80.0,-9.6,-3475.8,114.2,-40.0,-2352.6,-39.9,-56.1,-78.9,0,0,792,0,139,0,
0.4400,4.2,0.3,88.9,66.9,59.3,0.6,3.3,73.5,-1264.4,17.0,163.1,131.7,-10.2,-36.6,-1.2,-48.2,-9.9,-3421.8,151.3,6.6,-2302.5,-10.2,-24.3,-43.0,0,0,798,0,140,0,
0.4433,-33.0,-55.1,53.9,14.7,31.2,-46.1,-40.1,-9.3,-966.9,-17.9,135.6,108.7,-52.1,-69.9,-34.7,-79.7,-9.6,-3466.8,115.1,-34.1,-2349.3,-32.1,-54.3,-70.8,0,0,804,0,141,0,
0.4467,4.5,-20.1,63.7,34.5,37.5,-28.8,-20.3,14.0,-1115.6,-1.2,141.3,110.5,-27.3,-53.4,-16.7,-65.6,-9.3,-3462.0,125.9,-23.9,-2342.1,-31.8,-44.1,-61.3,0,0,810,0,142,0,
0.4500,9.9,-12.6,84.4,59.7,57.8,-4.8,-1.5,67.5,-1190.0,11.7,154.4,132.9,-14.1,-42.3,0.0,-48.5,-9.6,-3441.9,145.0,13.4,-2328.3,-15.6,-29.4,-46.0,0,0,816,0,143,0,
0.4533,-28.2,-76.9,27.2,-12.0,8.4,-67.4,-57.4,-42.4,-1115.6,-31.7,111.4,83.9,-76.7,-81.9,-47.2,-95.8,-9.9,-3493.5,85.1,-63.3,-2373.9,-54.5,-78.0,-93.6,0,0,822,0,144,0,
0.4567,38.1,16.5,94.9,67.2,69.2,18.3,20.0,69.0,-1115.6,17.3,166.0,137.1,-10.2,-22.2,18.8,-29.7,-9.6,-3460.8,148.3,6.6,-2333.7,-3.0,-14.4,-31.1,0,0,828,0,145,0,
0.4600,-55.2,-57.2,30.2,4.2,10.5,-48.5,-43.1,11.1,-1264.4,-33.5,106.6,82.1,-62.9,-76.5,-40.9,-91.7,-9.9,-3497.7,89.6,-50.8,-2377.5,-60.2,-73.8,-92.7,0,0,834,0,146,0,
0.4633,7.5,-28.7,62.2,21.0,41.1,-30.9,-15.9,-3.0,-966.9,3.9,140.1,114.7,-33.2,-47.4,-11.4,-62.3,-9.3,-3484.5,120.8,-32.9,-2362.2,-31.5,-45.3,-62.5,0,0,840,0,147,0,
0.4667,10.2,-18.9,66.1,46.2,43.8,-9.3,-3.3,57.0,-1264.4,-2.7,138.9,113.2,-25.2,-44.7,-8.1,-60.5,-9.9,-3436.8,126.8,-17.9,-2319.0,-33.3,-43.2,-59.2,0,0,846,0,148,0,
0.4700,-32.1,-61.1,39.5,5.7,18.3,-56.0,-43.1,-3.0,-1115.6,-23.6,119.5,90.5,-56.3,-67.2,-36.8,-85.7,-9.6,-3475.5,98.6,-50.2,-2352.6,-47.3,-70.2,-87.3,0,0,852,0,149,0,
0.4733,24.9,-20.4,70.3,39.6,52.1,1.8,-4.2,16.1,-1115.6,15.5,146.3,116.8,-23.1,-42.9,-2.1,-53.3,-9.9,-3453.9,129.5,-19.4,-2330.4,-17.4,-39.3,-61.3,0,0,858,0,150,0,
0.4767,-37.2,-33.8,50.3,25.8,24.6,-37.4,-28.1,45.1,-1338.8,-27.5,119.2,91.1,-36.2,-54.9,-25.1,-78.5,-9.3,-3471.6,110.6,-37.1,-2348.4,-48.5,-64.2,-83.1,0,0,864,0,151,0,
0.4800,-6.3,-17.1,65.8,26.4,47.9,-29.4,-20.0,6.9,-892.5,6.3,145.1,116.8,-25.5,-42.6,-12.6,-60.8,-9.6,-3447.0,128.9,-24.2,-2328.9,-24.6,-41.4,-57.1,0,0,870,0,152,0,
0.4833,4.2,-38.3,53.6,24.3,30.3,-28.8,-20.0,14.0,-1115.6,-11.7,125.7,100.3,-37.7,-66.6,-20.3,-70.4,-9.6,-3465.0,111.5,-29.6,-2349.0,-26.4,-47.1,-63.4,0,0,876,0,153,0,
0.4867,-2.4,-9.6,80.2,52.5,56.9,-3.3,3.0,68.7,-1190.0,9.3,150.5,124.5,-10.2,-36.6,4.5,-45.5,-9.9,-3422.4,141.7,-2.4,-2300.7,-2.4,-24.6,-38.6,0,0,882,0,154,0,
0.4900,-13.8,-44.6,48.2,1.5,24.6,-48.8,-39.5,-23.6,-892.5,-15.2,124.8,97.9,-51.5,-65.4,-29.3,-78.8,-9.9,-3478.5,106.1,-47.8,-2361.3,-39.9,-58.2,-74.7,0,0,888,0,155,0,
0.4933,3.6,-2.7,82.6,54.9,54.5,-3.0,6.0,60.0,-1413.1,5.4,151.1,120.9,-32.9,-40.5,0.6,-47.9,-9.9,-3440.1,142.0,-7.5,-2319.6,-17.1,-27.3,-43.0,0,0,894,0,156,0,
0.4967,-29.4,-37.1,61.9,30.0,42.9,-23.4,-15.6,32.6,-1115.6,1.8,137.4,109.9,-43.1,-51.3,-16.1,-64.7,-9.9,-3438.6,121.4,-25.4,-2328.9,-29.4,-41.1,-67.6,0,0,900,0,157,0,
0.5000,-2.7,-51.2,38.9,1.8,21.3,-37.4,-33.2,-23.6,-1115.6,-24.5,116.2,89.3,-52.7,-72.6,-35.9,-80.3,-9.9,-3487.5,98.9,-53.2,-2370.3,-55.7,-60.0,-78.6,0,0,906,0,158,0,
0.5033,24.9,11.7,91.3,69.9,69.5,12.9,24.8,84.2,-1190.0,26.9,161.9,135.0,8.1,-22.2,17.6,-31.4,-9.6,-3430.8,154.0,11.1,-2310.9,-4.5,-3.9,-38.6,0,0,912,0,159,0,
0.5067,-50.7,-74.2,20.3,-18.0,0.6,-59.0,-55.3,-26.9,-1115.6,-36.8,98.2,71.4,-63.5,-85.2,-51.1,-98.8,-9.6,-3490.8,83.3,-68.4,-2372.1,-57.5,-75.3,-88.8,0,0,918,0,160,0,
0.5100,27.9,0.0,81.1,47.7,60.2,-7.2,4.8,28.1,-1041.3,16.4,156.2,127.5,-4.2,-27.0,8.7,-40.7,-9.6,-3444.6,145.9,-9.0,-2326.5,-13.5,-21.9,-39.2,0,0,924,0,161,0,
0.5133,-30.3,-21.0,54.8,26.7,20.4,-34.5,-23.9,44.2,-1338.8,-12.3,123.3,90.8,-28.4,-63.9,-22.4,-73.1,-9.6,-3485.7,118.4,-36.5,-2365.8,-47.6,-52.2,-75.9,0,0,930,0,162,0,
0.5167,-7.8,-46.7,46.1,4.2,19.2,-56.3,-39.5,-21.8,-966.9,-11.4,126.3,88.7,-49.7,-64.2,-28.4,-77.6,-9.9,-3483.3,107.3,-59.2,-2367.9,-44.7,-58.2,-81.0,0,0,936,0,163,0,
0.5200,25.5,-2.1,74.5,46.5,42.6,-12.6,0.3,38.2,-1264.4,0.6,136.5,103.3,-29.3,-38.7,4.2,-51.5,-9.6,-3453.6,133.4,-25.4,-2335.5,-27.0,-30.6,-53.2,0,0,942,0,164,0,
0.5233,-36.9,-12.0,46.4,16.8,20.4,-41.3,-38.9,26.3,-1190.0,-15.2,110.8,85.4,-57.5,-69.6,-33.2,-85.7,-9.3,-3480.9,101.0,-40.0,-2358.6,-47.6,-67.2,-84.0,0,0,948,0,165,0,
0.5267,7.8,-35.0,69.4,31.2,54.5,-19.5,-17.0,-3.9,-1041.3,-8.7,150.2,127.5,-26.7,-39.0,-5.4,-59.0,-9.6,-3455.7,127.7,-12.8,-2338.8,-12.0,-37.5,-52.9,0,0,954,0,166,0,
0.5300,-11.4,-34.4,58.7,39.3,41.4,-15.3,-18.5,38.5,-1338.8,-17.3,126.6,102.7,-32.6,-54.3,-14.6,-72.8,-9.6,-3470.1,116.6,-17.3,-2353.2,-38.1,-53.7,-62.8,0,0,960,0,167,0,
0.5333,3.0,-29.6,69.7,45.3,59.3,-13.8,-13.2,35.5,-1115.6,4.5,148.7,127.5,-27.6,-44.4,-11.4,-61.7,-9.6,-3447.9,122.0,-4.5,-2333.4,-10.2,-38.4,-39.8,0,0,966,0,168,0,
0.5367,10.2,-27.2,59.8,25.8,44.1,-25.8,-31.7,-8.7,-966.9,-29.0,130.5,111.4,-36.8,-65.4,-33.2,-84.8,-9.9,-3487.2,110.3,-25.1,-2370.6,-38.7,-57.9,-63.1,0,0,972,0,169,0,
0.5400,10.5,-1.5,91.6,75.6,77.6,13.5,9.0,79.2,-1264.4,22.1,168.4,147.8,-12.3,-34.2,2.4,-50.6,-9.6,-3436.2,151.6,26.3,-2326.2,-4.5,-24.9,-25.7,0,0,978,0,170,0,
0.5433,-23.4,-51.8,60.4,25.2,44.9,-37.2,-33.2,-2.1,-966.9,3.0,145.1,125.7,-45.5,-61.8,-28.1,-77.9,-9.9,-3473.7,117.8,-19.4,-2357.1,-32.4,-54.9,-58.6,0,0,984,0,171,0,
0.5467,8.1,-22.8,65.5,39.3,51.5,-5.4,-12.9,12.5,-1115.6,-9.6,144.8,120.9,-32.0,-52.8,-15.8,-66.2,-9.6,-3476.7,123.2,-16.7,-2363.1,-33.0,-45.6,-59.8,0,0,990,0,172,0,
0.5500,12.6,-6.6,84.7,58.5,60.8,6.0,4.8,66.0,-1115.6,8.7,156.8,133.8,-16.8,-36.9,3.3,-50.6,-9.6,-3458.4,141.1,7.2,-2346.0,-17.1,-29.4,-46.3,0,0,996,0,173,0,
0.5533,-26.1,-70.1,27.2,-15.3,5.4,-81.2,-58.6,-46.0,-966.9,-44.2,106.6,81.2,-71.9,-82.8,-45.7,-95.8,-9.6,-3532.2,79.7,-69.0,-2412.0,-56.3,-75.9,-91.8,0,0,1002,0,174,0,
0.5567,36.6,12.6,88.3,60.6,64.1,10.2,18.2,61.2,-1190.0,13.8,156.5,130.8,-2.1,-26.4,16.1,-39.2,-9.6,-3454.2,145.9,-7.5,-2339.7,-12.3,-16.2,-38.3,0,0,1008,0,175,0,
0.5600,-56.4,-60.5,30.5,-5.7,4.2,-58.4,-46.7,2.7,-1338.8,-33.5,101.2,74.1,-62.9,-84.3,-44.5,-96.1,-10.2,-3506.4,86.6,-59.8,-2385.3,-64.4,-76.2,-103.1,0,0,1014,0,176,0,
0.5633,6.3,-22.2,59.6,15.0,31.2,-35.7,-20.6,-11.6,-1041.3,-12.0,129.0,104.2,-35.6,-51.6,-13.1,-61.4,-9.6,-3488.4,108.8,-41.8,-2371.5,-30.3,-46.2,-60.1,0,0,1020,0,177,0,
0.5667,11.1,-14.4,67.6,39.6,35.7,-25.5,-9.9,51.7,-1264.4,-6.6,134.1,108.1,-36.2,-56.1,-11.1,-61.7,-9.6,-3441.0,123.2,-20.9,-2327.1,-24.9,-41.1,-57.4,0,0,1026,0,178,0,
0.5700,-28.2,-42.8,39.5,-0.3,14.1,-54.5,-42.2,-0.3,-1041.3,-20.0,114.1,89.3,-56.9,-74.4,-35.6,-85.4,-9.6,-3469.8,93.5,-53.2,-2350.5,-42.0,-63.3,-80.1,0,0,1032,0,179,0,
0.5733,33.3,-4.8,74.2,34.5,47.9,-19.5,-6.3,13.4,-1190.0,15.8,144.8,120.3,-26.4,-41.1,-0.3,-52.1,-9.6,-3449.4,129.5,-20.0,-2337.9,-14.7,-33.0,-52.6,0,0,1038,0,180,0,
0.5767,-35.4,-35.6,53.3,26.7,24.9,-30.0,-24.8,40.6,-1413.1,-18.5,120.6,96.2,-33.8,-66.6,-24.8,-73.7,-9.6,-3471.9,112.1,-27.8,-2364.0,-33.9,-57.3,-76.2,0,0,1044,0,181,0,
0.5800,-6.0,-38.3,65.2,24.6,45.5,-29.4,-21.5,0.6,-1041.3,5.1,144.8,121.2,-33.2,-45.0,-9.6,-57.2,-10.2,-3455.4,121.1,-20.6,-2335.5,-16.5,-41.4,-58.0,0,0,1050,0,182,0,
0.5833,9.6,-29.3,54.5,23.7,29.4,-33.0,-26.0,12.2,-1115.6,-8.1,126.9,102.4,-44.6,-63.3,-20.9,-71.6,-9.9,-3473.7,108.8,-28.1,-2361.0,-29.7,-58.2,-75.0,0,0,1056,0,183,0,
0.5867,0.6,-6.0,82.6,51.6,54.2,-8.4,-5.7,59.7,-1264.4,12.9,151.7,126.6,-15.9,-34.5,-0.9,-54.8,-9.6,-3450.0,139.6,-2.1,-2330.7,-17.7,-36.6,-57.7,0,0,1062,0,184,0,
0.5900,-12.3,-47.0,47.6,3.6,26.1,-44.0,-41.3,-24.2,-1190.0,-17.3,125.1,98.8,-50.0,-62.7,-32.0,-79.7,-9.6,-3498.6,100.1,-43.0,-2377.8,-44.1,-64.8,-74.4,0,0,1068,0,185,0,
0.5933,6.0,1.5,84.4,54.6,53.9,-6.9,-1.2,57.3,-1413.1,7.5,149.9,123.9,-7.5,-34.5,-4.2,-54.5,-9.6,-3456.0,138.4,-4.8,-2339.4,-18.9,-37.2,-50.8,0,0,1074,0,186,0,
0.5967,-24.6,-32.9,62.5,32.4,45.8,-27.6,-23.0,30.8,-1190.0,7.5,140.4,115.3,-30.5,-50.7,-18.2,-65.9,-9.9,-3467.1,119.3,-17.0,-2348.1,-25.5,-50.7,-63.4,0,0,1080,0,187,0,
0.6000,3.0,-46.1,45.2,8.1,30.3,-38.0,-38.0,-22.7,-892.5,-12.9,121.8,99.4,-49.1,-69.0,-29.9,-78.8,-9.9,-3481.8,99.8,-43.9,-2371.2,-36.0,-60.6,-83.1,0,0,1086,0,188,0,
0.6033,27.3,16.8,97.0,73.2,74.6,18.0,19.1,84.2,-1264.4,29.9,166.0,140.7,1.2,-20.7,19.1,-32.3,-9.6,-3422.1,152.8,18.5,-2311.8,3.9,-14.7,-21.5,0,0,1092,0,189,0,
0.6067,-48.3,-75.1,29.0,-12.9,10.8,-66.8,-58.6,-23.0,-1115.6,-20.3,104.8,82.1,-72.2,-86.7,-44.5,-96.4,-9.9,-3495.0,81.2,-57.7,-2379.3,-54.5,-77.7,-84.9,0,0,1098,0,190,0,
0.6100,26.4,0.6,82.6,47.1,62.9,-3.6,1.5,28.7,-1115.6,15.2,153.5,130.5,-6.3,-28.2,16.4,-38.0,-9.9,-3450.0,135.2,-4.8,-2335.5,-4.2,-26.1,-37.7,0,0,1104,0,191,0,
0.6133,-31.2,-26.9,55.7,31.5,35.7,-24.0,-25.1,46.3,-1190.0,-17.3,121.5,102.4,-46.4,-59.1,-14.3,-71.0,-9.6,-3464.7,109.1,-21.2,-2349.3,-33.9,-52.5,-63.7,0,0,1110,0,192,0,
0.6167,-7.2,-54.2,45.5,3.9,30.0,-51.8,-44.0,-19.4,-966.9,-11.1,123.3,103.3,-47.9,-61.5,-17.0,-70.7,-9.6,-3484.2,101.0,-41.2,-2371.5,-23.4,-52.5,-59.5,0,0,1116,0,193,0,
0.6200,25.8,-7.8,73.6,47.1,55.1,-14.4,-9.3,35.8,-1190.0,-1.2,149.3,123.6,-15.0,-36.0,9.0,-47.0,-9.6,-3456.6,132.5,-2.4,-2339.4,-13.2,-28.5,-42.1,0,0,1122,0,194,0,
0.6233,-37.8,-45.8,43.4,17.4,24.0,-46.1,-39.8,19.7,-1190.0,-19.1,118.9,95.0,-47.6,-66.3,-23.3,-76.1,-9.9,-3480.0,100.1,-32.0,-2364.6,-36.0,-58.2,-70.5,0,0,1128,0,195,0,
0.6267,11.4,-27.2,66.1,29.4,48.5,-28.5,-17.3,-5.4,-892.5,4.5,142.1,123.6,-29.6,-37.5,3.0,-47.3,-9.6,-3468.3,121.7,-26.0,-2343.9,-10.8,-24.6,-43.9,0,0,1134,0,196,0,
0.6300,-10.8,-22.5,58.1,40.2,36.3,-24.0,-18.5,37.3,-1338.8,0.0,125.4,104.8,-41.3,-58.8,-13.4,-65.3,-9.9,-3462.0,113.6,-22.7,-2350.5,-28.8,-41.1,-56.5,0,0,1140,0,197,0,
0.6333,5.7,-21.9,70.9,39.6,48.8,-21.6,-11.7,29.9,-1041.3,11.7,146.3,123.9,-38.9,-44.1,-2.7,-49.7,-9.9,-3449.7,127.1,-15.2,-2337.3,-11.7,-24.6,-47.2,0,0,1146,0,198,0,
0.6367,6.6,-44.9,44.0,9.3,30.0,-22.2,-24.8,-18.8,-1041.3,-13.5,119.7,94.4,-62.6,-66.0,-22.7,-71.0,-9.9,-3513.9,100.4,-49.3,-2394.9,-44.7,-51.3,-78.3,0,0,1152,0,199,0,
0.6400,5.7,-6.3,78.4,56.7,53.9,-8.4,9.0,66.0,-1264.4,4.2,148.1,120.6,-13.5,-31.5,14.6,-36.2,-9.3,-3460.2,134.9,-3.3,-2343.3,-13.8,-17.7,-36.5,0,0,1158,0,200,0,
0.6433,-32.1,-52.7,45.8,5.4,23.7,-50.3,-31.7,-14.9,-966.9,-10.2,124.2,96.8,-50.9,-66.9,-30.8,-69.8,-9.9,-3482.7,100.1,-49.3,-2366.4,-40.5,-47.1,-67.6,0,0,1164,0,201,0,
0.6467,-0.3,-19.8,57.2,25.5,34.2,-30.0,-15.0,2.4,-1190.0,-6.9,129.6,101.8,-38.9,-59.1,-17.6,-56.9,-9.6,-3475.8,115.4,-36.2,-2353.8,-31.2,-40.8,-68.7,0,0,1170,0,202,0,
0.6500,5.1,-7.8,72.4,48.0,52.7,-6.9,4.2,56.8,-1190.0,10.5,146.3,120.3,-24.0,-39.9,3.6,-40.4,-9.6,-3450.0,136.4,-8.1,-2331.0,-26.1,-21.9,-42.1,0,0,1176,0,203,0,
0.6533,-28.5,-64.7,25.1,-18.9,3.9,-69.2,-56.8,-54.1,-1041.3,-37.7,108.1,77.9,-72.8,-88.5,-45.1,-89.0,-9.6,-3502.2,89.6,-63.6,-2391.0,-53.3,-75.0,-98.3,0,0,1182,0,204,0,
0.6567,36.0,15.6,88.9,66.9,62.9,8.1,15.6,55.9,-1115.6,20.9,162.5,134.1,-1.5,-24.9,19.4,-30.0,-9.6,-3442.5,151.6,8.7,-2324.1,-3.0,-20.4,-55.3,0,0,1188,0,205,0,
0.6600,-51.6,-47.3,37.7,4.8,8.7,-65.6,-54.7,3.9,-1115.6,-20.9,110.8,86.6,-52.7,-78.9,-37.1,-87.2,-9.6,-3491.7,97.1,-46.0,-2376.9,-49.1,-75.3,-94.8,0,0,1194,0,206,0,
0.6633,9.9,-26.9,59.6,26.4,42.3,-30.0,-24.5,-12.5,-1041.3,3.3,140.7,118.6,-32.6,-46.8,-6.9,-56.9,-9.6,-3476.1,117.2,-29.3,-2359.8,-26.7,-47.4,-71.7,0,0,1200,0,207,0,
0.6667,18.9,4.2,72.1,54.9,45.2,-26.7,-18.5,52.3,-1190.0,9.0,142.4,122.1,-34.7,-45.3,-0.3,-55.1,-9.9,-3442.5,131.9,-3.9,-2327.1,-16.8,-48.3,-67.6,0,0,1206,0,208,0,
0.6700,-21.0,-43.1,50.0,19.2,29.1,-52.4,-50.8,-2.7,-1041.3,-15.5,130.8,107.8,-53.6,-68.7,-29.9,-80.6,-9.6,-3473.4,108.8,-30.8,-2355.6,-39.0,-69.3,-83.7,0,0,1212,0,209,0,
0.6733,39.3,3.0,84.7,55.5,67.1,-8.1,-10.2,15.5,-1041.3,17.6,160.4,139.5,-14.7,-31.8,6.6,-48.5,-9.9,-3451.2,139.6,-3.0,-2328.0,-11.7,-31.5,-48.1,0,0,1218,0,210,0,
0.6767,-26.1,-40.1,64.0,44.7,44.1,-29.7,-31.4,44.2,-1413.1,-16.4,137.1,115.0,-30.5,-60.3,-20.3,-73.4,-9.6,-3457.8,125.3,-10.8,-2331.3,-31.5,-57.9,-76.2,0,0,1224,0,211,0,
0.6800,-1.5,-38.3,77.8,40.8,65.0,-23.7,-21.5,5.1,-892.5,16.1,158.0,138.0,-31.7,-43.5,-10.2,-62.6,-9.6,-3451.5,134.6,-4.8,-2331.3,-15.3,-39.0,-53.2,0,0,1230,0,212,0,
0.6833,15.9,-26.0,64.0,36.9,47.0,-26.7,-25.7,14.0,-1115.6,-7.2,135.6,115.3,-40.7,-56.7,-20.3,-75.2,-9.6,-3475.2,120.5,-19.1,-2358.6,-29.4,-51.3,-57.1,0,0,1236,0,213,0,
0.6867,3.3,-3.6,82.0,58.5,63.8,-7.2,-6.3,57.6,-1264.4,7.2,152.6,132.0,-19.8,-35.7,-3.0,-55.1,-9.9,-3439.5,141.1,0.3,-2312.7,-9.9,-33.3,-46.3,0,0,1242,0,214,0,
0.6900,-7.2,-48.2,49.7,8.7,34.2,-42.2,-39.8,-25.4,-966.9,-13.8,123.9,101.8,-54.8,-63.9,-34.7,-77.6,-9.6,-3474.9,107.9,-44.2,-2351.1,-36.3,-55.5,-67.9,0,0,1248,0,215,0,
0.6933,9.3,-7.2,74.2,54.3,57.8,-1.8,5.4,49.6,-1338.8,20.6,143.9,121.5,-23.7,-40.2,-0.6,-48.8,-9.6,-3450.6,132.2,-7.2,-2331.6,-23.1,-21.3,-48.4,0,0,1254,0,216,0,
0.6967,-23.1,-30.5,62.5,30.9,46.4,-22.2,-20.9,26.6,-1190.0,4.2,135.6,110.2,-37.7,-48.3,-16.4,-64.7,-9.3,-3452.7,121.7,-17.9,-2323.5,-18.0,-45.6,-45.4,0,0,1260,0,217,0,
0.7000,3.9,-44.9,43.1,2.7,23.1,-48.5,-43.1,-33.2,-892.5,-17.6,115.3,90.5,-63.5,-68.1,-37.1,-83.3,-9.9,-3499.8,100.4,-51.4,-2372.1,-44.4,-64.5,-82.8,0,0,1266,0,218,0,
0.7033,30.6,13.8,91.3,69.9,68.9,12.9,14.1,77.7,-1264.4,27.5,160.4,140.1,-4.5,-22.8,15.2,-35.3,-9.6,-3433.5,148.6,16.7,-2296.5,8.7,-14.4,-28.4,0,0,1272,0,219,0,
0.7067,-45.0,-71.5,24.2,-16.2,0.6,-74.3,-64.6,-33.5,-966.9,-28.1,101.2,77.3,-77.9,-82.2,-47.5,-94.9,-9.6,-3519.9,81.2,-65.1,-2370.3,-63.2,-73.2,-91.5,0,0,1278,0,220,0,
0.7100,24.0,1.8,76.9,42.3,56.9,15.0,-1.5,23.9,-1115.6,22.1,146.6,122.1,-36.5,-30.9,5.4,-42.8,-9.9,-3456.6,131.6,-13.1,-2307.3,-5.7,-22.2,-40.7,0,0,1284,0,221,0,
0.7133,-31.2,-26.6,55.4,29.4,23.1,-35.1,-29.3,40.6,-1190.0,-5.1,127.5,102.7,-36.2,-54.0,-21.2,-70.7,-9.9,-3462.0,116.9,-19.4,-2305.8,-21.6,-48.0,-69.0,0,0,1290,0,222,0,
0.7167,-3.9,-50.9,48.2,3.0,21.9,-55.4,-42.2,-19.7,-966.9,-0.6,127.2,105.1,-34.7,-58.5,-26.6,-72.8,-9.9,-3473.4,106.4,-39.1,-2320.5,-22.8,-51.0,-69.0,0,0,1296,0,223,0,
0.7200,30.9,-3.9,76.3,46.5,50.3,-9.6,1.8,42.7,-1115.6,21.5,146.6,124.5,-4.2,-37.5,0.6,-48.5,-9.9,-3443.7,135.5,-5.1,-2289.3,-8.1,-25.5,-35.6,0,0,1302,0,224,0,
0.7233,-38.1,-42.5,40.7,10.2,15.6,-49.1,-33.2,23.6,-1264.4,-18.2,115.6,92.0,-44.0,-69.0,-32.6,-79.4,-9.9,-3476.1,97.4,-37.9,-2326.5,-32.1,-55.2,-75.6,0,0,1308,0,225,0,
0.7267,6.6,-22.8,67.9,27.0,47.9,-20.1,-10.5,-0.6,-966.9,17.9,146.3,123.0,-29.0,-45.0,-7.5,-52.4,-9.6,-3490.8,123.8,-24.5,-2331.9,-14.1,-26.1,-39.2,0,0,1314,0,226,0,
0.7300,-18.3,-14.1,54.2,28.8,30.6,-22.8,-17.6,39.4,-1338.8,-17.3,114.7,94.1,-27.3,-59.7,-24.8,-73.7,-9.6,-3489.9,106.4,-30.5,-2333.7,-35.4,-47.1,-65.2,0,0,1320,0,227,0,
0.7333,-5.7,-32.9,63.1,28.8,47.0,-18.0,-8.7,31.7,-1041.3,9.0,137.7,114.7,-33.2,-44.7,-7.8,-55.7,-9.6,-3460.5,121.1,-17.9,-2301.9,-9.9,-29.1,-46.3,0,0,1326,0,228,0,
0.7367,-1.2,-43.7,40.7,4.5,29.7,-33.6,-27.8,-17.0,-1115.6,-17.0,116.2,91.1,-50.0,-65.4,-29.3,-76.1,-9.6,-3494.1,98.0,-47.5,-2343.9,-34.8,-48.9,-68.7,0,0,1332,0,229,0,
0.7400,2.4,1.5,78.1,54.3,58.1,2.7,8.1,73.5,-1338.8,10.8,144.8,120.0,-19.5,-39.0,1.8,-45.5,-9.6,-3449.4,140.5,0.9,-2294.1,-10.8,-21.9,-45.1,0,0,1338,0,230,0,
0.7433,-33.0,-47.6,41.3,3.6,26.4,-37.7,-30.8,-7.2,-966.9,-15.8,117.7,93.5,-44.9,-65.1,-33.2,-76.1,-9.3,-3486.3,100.1,-43.6,-2346.0,-36.9,-47.4,-75.9,0,0,1344,0,231,0,
0.7467,-2.7,-25.1,53.0,22.2,37.8,-20.1,-15.3,12.8,-1115.6,-2.7,123.6,103.3,-37.1,-54.3,-11.1,-64.4,-9.6,-3489.6,113.6,-18.2,-2350.5,-30.0,-42.6,-60.7,0,0,1350,0,232,0,
0.7500,5.4,-3.6,76.6,51.9,58.4,1.5,3.9,68.7,-1115.6,19.4,148.1,126.3,-7.2,-39.3,-2.1,-46.7,-9.6,-3458.7,139.3,3.0,-2321.1,-0.6,-24.0,-52.0,0,0,1356,0,233,0,
0.7533,-35.7,-57.2,22.4,-21.9,2.1,-57.5,-58.0,-43.6,-1041.3,-36.5,97.1,74.7,-74.0,-89.7,-55.9,-97.9,-9.6,-3522.6,80.9,-67.5,-2391.0,-58.7,-76.8,-92.7,0,0,1362,0,234,0,
0.7567,32.1,25.1,92.5,63.6,65.6,7.8,14.7,64.8,-1190.0,33.5,158.0,135.9,2.7,-24.3,15.2,-32.9,-9.3,-3470.4,148.0,7.8,-2342.4,4.2,-10.8,-18.8,0,0,1368,0,235,0,
0.7600,-61.2,-70.9,34.1,0.9,12.3,-46.4,-47.9,7.8,-1115.6,-28.7,109.0,86.6,-58.4,-76.8,-41.2,-88.4,-9.9,-3487.5,95.9,-43.0,-2365.2,-37.2,-66.0,-82.2,0,0,1374,0,236,0,
0.7633,0.9,-36.8,61.3,19.5,42.3,-24.0,-24.8,-9.6,-892.5,10.5,138.3,112.6,-44.0,-49.8,-12.3,-58.1,-9.6,-3481.8,118.1,-28.1,-2359.5,-16.8,-39.3,-53.8,0,0,1380,0,237,0,
0.7667,9.9,-13.8,73.9,46.8,48.8,-13.5,-10.2,57.0,-1264.4,15.5,140.7,119.7,-26.4,-45.6,-3.0,-51.8,-9.6,-3457.8,136.9,-3.0,-2337.3,-9.0,-32.4,-42.1,0,0,1386,0,238,0,
0.7700,-31.8,-56.6,43.4,6.3,23.7,-53.0,-51.7,-3.9,-892.5,-11.4,118.6,98.8,-54.2,-67.8,-33.2,-80.3,-9.3,-3495.9,100.4,-35.3,-2370.3,-32.4,-62.4,-73.5,0,0,1392,0,239,0,
0.7733,31.2,-12.9,78.7,42.9,58.1,-15.3,-15.0,14.6,-1190.0,22.1,151.1,129.6,-10.2,-32.1,8.7,-46.4,-9.6,-3486.9,133.7,-8.7,-2361.3,-3.9,-30.9,-40.7,0,0,1398,0,240,0,
0.7767,-36.3,-35.0,54.2,31.2,34.8,-36.6,-35.3,40.6,-1413.1,-9.9,125.4,101.8,-34.4,-57.3,-17.9,-75.5,-9.6,-3484.2,114.5,-18.2,-2355.0,-30.3,-58.8,-68.1,0,0,1404,0,241,0,
0.7800,-4.5,-34.1,67.6,25.5,57.2,-21.9,-28.7,-0.3,-1041.3,7.2,148.7,119.7,-21.3,-40.2,-7.8,-62.0,-10.2,-3468.0,125.6,-18.5,-2346.3,-14.7,-41.1,-44.2,0,0,1410,0,242,0,
0.7833,10.2,-23.4,55.7,24.9,39.9,-26.1,-32.6,9.9,-1190.0,-0.9,122.4,99.7,-35.6,-56.1,-20.3,-76.4,-9.6,-3482.4,110.9,-23.0,-2362.2,-26.4,-58.8,-69.3,0,0,1416,0,243,0,
0.7867,-9.0,-16.5,69.4,46.2,59.6,14.1,-5.1,57.0,-1338.8,18.8,138.3,118.0,-23.1,-43.5,-3.6,-53.3,-9.6,-3447.0,127.7,0.3,-2332.2,-12.6,-24.6,-57.7,0,0,1422,0,244,0,
0.7900,-12.9,-42.8,44.3,-1.2,27.3,-54.5,-46.4,-30.2,-1041.3,-9.6,115.0,94.1,-56.3,-67.2,-32.9,-81.8,-9.3,-3493.2,96.5,-40.0,-2375.4,-39.3,-64.5,-57.4,0,0,1428,0,245,0,
0.7933,0.9,28.7,73.3,48.3,53.3,-5.4,-6.9,49.9,-1264.4,-2.7,134.4,113.2,-32.3,-47.7,-6.3,-60.2,-9.9,-3475.8,123.5,-2.7,-2360.7,-13.8,-43.5,-46.0,0,0,1434,0,246,0,
0.7967,-29.1,-38.6,59.3,24.9,43.2,-25.5,-22.4,25.7,-1190.0,2.4,131.1,108.4,-31.4,-55.2,-18.5,-72.2,-9.6,-3479.4,114.8,-19.4,-2358.3,-22.8,-46.2,-52.9,0,0,1440,0,247,0,
0.8000,-3.9,-58.1,38.6,0.3,24.6,-45.8,-41.9,-31.1,-1041.3,-24.8,113.5,90.2,-72.8,-75.0,-38.3,-89.3,-10.2,-3523.2,93.5,-38.2,-2406.3,-47.6,-67.5,-79.8,0,0,1446,0,248,0,
0.8033,23.1,10.8,89.5,70.2,71.6,15.0,17.3,78.0,-1338.8,26.9,157.4,136.5,-11.7,-28.5,12.0,-38.6,-9.3,-3456.6,142.9,14.0,-2336.1,6.0,-17.7,-41.5,0,0,1452,0,249,0,
0.8067,-50.7,-71.5,26.0,-14.1,6.6,-57.2,-57.4,-26.3,-1041.3,-36.5,101.2,78.5,-72.5,-80.7,-55.3,-102.1,-9.6,-3505.8,84.8,-63.3,-2390.1,-56.0,-81.0,-104.3,0,0,1458,0,250,0,
0.8100,26.4,-1.2,81.7,48.0,58.7,6.6,7.2,26.0,-1264.4,11.7,152.9,130.2,-8.1,-20.4,5.7,-42.5,-9.9,-3460.2,139.9,-12.8,-2342.4,-3.3,-23.1,-42.4,0,0,1464,0,251,0,
0.8133,-30.0,-22.2,64.0,34.8,34.2,-26.7,-16.5,48.4,-1338.8,-13.8,132.3,105.4,-23.7,-58.2,-16.4,-63.8,-9.9,-3482.1,123.5,-20.6,-2369.4,-31.5,-43.2,-63.7,0,0,1470,0,252,0,
0.8167,-6.6,-51.5,49.1,9.3,29.1,-42.2,-33.8,-19.1,-966.9,7.5,127.2,105.1,-39.2,-58.2,-22.7,-69.8,-9.6,-3477.6,109.1,-42.4,-2370.3,-27.6,-45.6,-69.9,0,0,1476,0,253,0,
0.8200,28.8,-0.3,82.9,53.1,59.0,5.1,6.3,43.3,-1413.1,17.9,149.6,127.2,-7.5,-34.5,7.8,-40.7,-9.9,-3458.1,142.6,-5.1,-2352.0,-12.3,-20.7,-43.3,0,0,1482,0,254,0,
0.8233,-40.5,-48.8,44.6,14.1,23.4,-43.1,-43.4,17.0,-1190.0,-4.2,116.8,94.4,-40.7,-69.9,-28.7,-78.2,-9.6,-3500.4,103.7,-32.0,-2383.5,-38.1,-61.2,-85.8,0,0,1488,0,255,0,
0.8267,12.0,-24.8,68.8,28.2,53.3,-20.1,-17.6,-3.3,-1041.3,13.2,146.3,124.8,-18.6,-37.5,2.4,-47.6,-9.6,-3484.5,126.2,-19.7,-2370.3,-7.8,-27.0,-46.6,0,0,1494,0,0,0,
0.8300,-13.8,-20.7,59.6,34.5,35.1,-21.3,-26.3,35.8,-1338.8,-9.9,123.6,102.7,-33.5,-58.5,-14.6,-69.2,-9.9,-3473.1,116.6,-23.0,-2354.4,-30.3,-49.5,-68.4,0,0,1500,0,1,0,
0.8333,0.6,-25.4,67.3,34.2,53.0,-20.4,-22.4,25.4,-892.5,9.6,142.7,123.0,-30.5,-45.0,-6.6,-55.7,-9.6,-3458.7,119.6,-12.6,-2346.0,-8.7,-32.1,-49.9,0,0,1506,0,2,0,
0.8367,8.7,-37.4,46.7,9.9,29.1,-39.5,-42.8,-23.3,-1041.3,-12.0,122.1,102.4,-46.4,-64.2,-27.8,-80.3,-9.9,-3504.9,102.2,-42.7,-2388.3,-36.9,-57.9,-71.1,0,0,1512,0,3,0,
0.8400,9.0,12.3,84.1,59.1,62.6,-1.8,-2.4,68.7,-1264.4,8.1,151.7,129.3,-18.9,-36.6,5.7,-48.5,-9.6,-3457.5,140.5,6.3,-2343.9,-5.4,-27.0,-43.9,0,0,1518,0,4,0,
0.8433,-29.1,-57.2,43.7,3.3,28.8,-41.6,-44.6,-18.2,-1041.3,3.0,120.6,101.2,-58.7,-66.6,-24.8,-75.8,-9.9,-3483.6,101.3,-38.5,-2369.7,-28.5,-54.6,-63.7,0,0,1524,0,5,0,
0.8467,3.9,-36.5,61.6,29.1,42.3,-21.0,-20.3,5.1,-1115.6,2.4,131.1,113.8,-36.5,-53.1,-11.4,-67.7,-9.6,-3485.1,119.6,-21.8,-2372.4,-23.7,-45.0,-61.3,0,0,1530,0,6,0,
0.8500,11.4,-4.2,84.1,59.7,62.0,11.7,2.7,68.4,-1115.6,17.9,154.4,134.7,-15.9,-39.9,-1.5,-49.7,-9.9,-3469.5,141.4,6.6,-2351.4,-7.8,-24.9,-42.4,0,0,1536,0,7,0,
0.8533,-24.6,-62.9,34.4,-7.5,18.3,-45.8,-51.1,-38.8,-966.9,-21.2,111.4,92.3,-74.9,-90.0,-49.9,-98.2,-9.6,-3519.3,88.4,-53.2,-2406.3,-44.7,-75.0,-89.7,0,0,1542,0,8,0,
0.8567,38.4,15.3,97.9,72.3,78.2,14.1,18.8,66.0,-1338.8,29.6,167.2,147.8,-0.3,-24.9,16.1,-34.1,-9.6,-3452.7,154.0,21.8,-2339.7,3.9,-9.9,-17.3,0,0,1548,0,9,0,
0.8600,-52.5,-53.9,39.8,11.1,18.9,-32.1,-40.4,12.8,-1115.6,-28.1,111.4,93.2,-47.0,-74.1,-40.6,-90.5,-9.6,-3495.9,97.7,-46.3,-2376.6,-39.9,-69.0,-86.1,0,0,1554,0,10,0,
0.8633,8.7,-25.1,71.5,32.4,54.5,-32.4,-17.9,-3.6,-1041.3,3.0,149.3,132.6,-16.2,-45.0,-12.0,-57.2,-9.6,-3468.0,127.1,-10.8,-2357.7,-7.8,-38.1,-39.5,0,0,1560,0,11,0,
0.8667,18.9,0.6,84.7,60.9,59.0,-6.3,-0.3,63.9,-1190.0,14.1,150.2,132.0,-3.6,-43.2,-4.8,-53.6,-9.6,-3457.5,141.1,3.0,-2346.0,-3.9,-36.9,-43.6,0,0,1566,0,12,0,
0.8700,-29.1,-56.0,52.7,11.4,36.3,-39.5,-36.2,4.5,-1115.6,-7.8,132.9,111.1,-50.6,-68.1,-33.8,-81.5,-9.6,-3490.5,110.9,-29.9,-2379.6,-33.6,-63.0,-68.1,0,0,1572,0,13,0,
0.8733,28.5,-10.8,83.5,48.3,71.0,5.1,-0.9,19.7,-1041.3,24.8,160.1,136.2,-16.8,-36.3,0.9,-52.7,-9.6,-3474.6,135.2,-1.2,-2362.5,-4.5,-33.0,-40.4,0,0,1578,0,14,0,
0.8767,-33.0,-26.3,60.1,33.0,41.1,-21.0,-26.0,47.2,-1338.8,-11.7,126.0,105.4,-32.9,-61.2,-26.9,-81.8,-9.6,-3475.8,113.6,-16.7,-2362.2,-33.3,-61.5,-70.5,0,0,1584,0,15,0,
0.8800,-5.7,-30.2,66.7,27.9,57.8,-19.8,-23.9,5.1,-892.5,15.5,143.0,122.7,-29.6,-44.7,-13.7,-66.8,-9.9,-3484.5,119.6,-14.3,-2372.4,-14.4,-51.3,-60.1,0,0,1590,0,16,0,
0.8833,15.9,-29.3,55.7,26.1,44.3,-17.1,-25.7,15.2,-1115.6,-12.9,124.5,103.9,-48.5,-58.5,-19.7,-75.5,-9.9,-3510.6,105.8,-28.4,-2390.4,-42.6,-59.7,-64.9,0,0,1596,0,17,0,
0.8867,4.2,-10.5,80.2,53.1,63.8,-6.6,-14.1,63.9,-1264.4,26.3,150.2,130.2,-31.7,-35.7,-1.8,-57.2,-9.6,-3447.0,135.2,7.8,-2327.4,-4.2,-37.5,-52.9,0,0,1602,0,18,0,
0.8900,-3.3,-41.9,51.5,4.8,37.2,-42.8,-49.4,-24.2,-1041.3,-7.5,125.1,106.3,-51.8,-58.8,-28.4,-84.8,-9.9,-3499.2,107.3,-32.9,-2378.4,-36.0,-66.3,-76.8,0,0,1608,0,19,0,
0.8933,12.6,-0.9,76.9,45.9,57.2,-10.8,-14.4,43.9,-1264.4,16.7,141.8,125.1,-6.3,-30.9,5.4,-56.6,-9.6,-3482.1,133.1,4.2,-2363.7,-9.6,-40.5,-64.0,0,0,1614,0,20,0,
0.8967,-16.8,-26.9,61.9,23.1,41.1,-29.4,-34.7,20.3,-1041.3,-0.6,136.5,116.5,-18.6,-35.7,-7.8,-63.5,-9.6,-3477.6,121.1,-13.1,-2360.7,-11.1,-46.5,-65.5,0,0,1620,0,21,0,
0.9000,6.0,-50.9,42.8,-4.5,21.3,-54.2,-54.1,-37.3,-892.5,10.2,120.3,98.5,-43.7,-48.9,-29.6,-86.3,-9.6,-3502.5,102.2,-41.2,-2381.7,-34.5,-64.5,-82.8,0,0,1626,0,22,0,
0.9033,30.9,12.0,95.8,60.9,66.5,5.7,7.2,72.3,-1264.4,33.5,161.9,142.1,14.1,-7.8,23.0,-30.9,-9.9,-3451.8,153.7,20.0,-2315.4,8.7,-10.2,-32.6,0,0,1632,0,23,0,
0.9067,-45.6,-75.7,24.5,-24.6,-0.3,-61.4,-63.1,-35.2,-1041.3,-16.4,103.9,82.1,-68.3,-80.4,-46.0,-97.3,-9.9,-3498.3,87.5,-62.2,-2339.7,-44.7,-74.7,-106.4,0,0,1638,0,24,0,
0.9100,23.4,-8.1,79.9,33.6,53.3,-4.2,1.8,19.7,-1115.6,34.4,151.1,130.8,-11.1,-30.6,6.6,-40.7,-9.9,-3460.5,139.3,-2.4,-2247.6,-1.8,-15.0,-28.4,0,0,1644,0,25,0,
0.9133,-27.6,-20.4,63.7,25.5,31.8,-32.1,-20.3,45.1,-1338.8,2.1,128.4,106.0,-25.2,-51.3,-17.6,-68.3,-9.6,-3449.1,124.4,-17.0,-2202.6,-21.0,-37.2,-49.6,0,0,1650,0,26,0,
0.9167,-9.3,-47.3,47.9,-4.5,21.3,-45.2,-36.2,-19.1,-892.5,-3.3,122.7,102.1,-42.8,-61.8,-25.1,-75.2,-9.9,-3468.3,103.1,-48.1,-2194.8,-28.8,-42.3,-56.2,0,0,1656,0,27,0,
0.9200,29.4,-5.4,76.3,45.3,54.5,-3.3,2.4,48.1,-1264.4,18.5,143.6,121.2,-8.1,-30.0,7.2,-42.5,-9.6,-3465.9,132.8,-3.0,-2151.3,-4.8,-15.6,-33.8,0,0,1662,0,28,0,
0.9233,-39.0,-45.8,42.8,9.9,22.5,-40.7,-38.6,28.1,-1338.8,-16.7,115.0,94.1,-44.9,-65.1,-29.9,-78.8,-9.6,-3473.1,96.5,-30.2,-2148.9,-34.2,-50.7,-64.9,0,0,1668,0,29,0,
0.9267,12.6,1.8,77.2,29.1,53.6,-16.8,-15.0,4.5,-1041.3,11.4,148.7,127.5,-35.3,-39.6,-7.5,-53.3,-9.6,-3421.8,123.5,-13.4,-2144.1,-7.5,-29.1,-41.5,0,0,1674,0,30,0,
0.9300,-9.9,2.1,64.9,33.9,36.3,-22.2,-22.1,46.3,-1413.1,-9.3,126.6,103.9,-37.7,-60.9,-21.2,-70.7,-9.6,-3444.6,110.9,-19.1,-2188.8,-31.2,-44.4,-61.0,0,0,1680,0,31,0,
0.9333,3.0,-40.1,78.1,33.9,52.4,-18.9,-16.7,36.1,-1041.3,12.0,149.6,123.0,-19.2,-42.9,-12.6,-57.8,-9.6,-3426.3,130.4,-11.1,-2204.7,-6.6,-29.4,-43.3,0,0,1686,0,32,0,
0.9367,7.2,-48.8,54.5,10.2,33.9,-33.3,-34.1,-9.3,-892.5,-14.1,125.4,98.2,-54.8,-66.0,-31.4,-76.7,-9.9,-3489.3,105.2,-39.4,-2310.0,-42.3,-49.2,-64.6,0,0,1692,0,33,0,
0.9400,9.9,6.0,91.6,61.2,60.8,3.3,5.1,80.6,-1264.4,12.9,153.8,126.6,-13.8,-39.9,-5.1,-51.5,-9.6,-3429.0,144.7,6.6,-2313.0,-1.5,-21.6,-36.5,0,0,1698,0,34,0,
0.9433,-24.6,-47.0,54.5,10.5,39.3,-30.3,-30.2,4.5,-1115.6,-6.0,127.8,104.2,-53.0,-63.9,-30.5,-77.0,-9.3,-3469.5,104.6,-30.5,-2406.0,-27.0,-46.8,-58.9,0,0,1704,0,35,0,
0.9467,6.3,-24.5,61.3,26.7,41.7,-15.9,-13.2,18.2,-1264.4,-3.6,129.0,105.7,-33.8,-56.4,-17.3,-68.3,-9.6,-3467.7,113.3,-26.0,-2405.1,-19.8,-37.5,-50.2,0,0,1710,0,36,0,
0.9500,11.4,-4.5,81.7,53.4,65.3,24.9,8.1,72.9,-1190.0,13.8,144.8,127.5,-11.7,-34.5,-0.3,-48.8,-9.6,-3437.4,132.5,2.1,-2372.7,-7.2,-21.0,-40.9,0,0,1716,0,37,0,
0.9533,-24.0,-63.8,32.0,-16.2,9.6,-65.9,-57.7,-39.7,-892.5,-27.2,104.8,80.9,-71.3,-76.5,-49.0,-98.5,-9.9,-3483.3,83.6,-61.6,-2416.2,-48.8,-74.4,-87.3,0,0,1722,0,38,0,
0.9567,39.6,19.5,97.3,67.5,74.9,26.1,23.3,69.3,-1115.6,31.4,160.7,139.2,1.2,-19.2,15.8,-34.4,-9.6,-3420.6,151.3,12.8,-2331.9,0.0,-9.0,-46.0,0,0,1728,0,39,0,
0.9600,-42.6,-43.7,42.5,10.2,22.8,-49.1,-44.6,17.0,-1264.4,-15.8,113.8,91.1,-43.4,-63.6,-35.6,-89.0,-9.9,-3469.2,98.3,-39.1,-2364.9,-50.0,-67.8,-69.3,0,0,1734,0,40,0,
0.9633,12.0,-33.5,67.0,26.4,50.9,-22.2,-20.6,-4.2,-1041.3,8.1,140.4,122.7,-22.5,-38.1,-6.3,-66.2,-9.6,-3463.8,122.6,-17.3,-2347.8,-16.8,-47.4,-52.6,0,0,1740,0,41,0,
0.9667,19.8,-6.3,80.8,57.3,60.2,4.5,-0.9,66.3,-1264.4,7.8,145.4,125.4,-9.6,-40.2,-4.8,-58.1,-9.3,-3437.1,131.6,3.6,-2322.9,-14.1,-31.2,-49.9,0,0,1746,0,42,0,
0.9700,-25.5,-51.2,52.7,13.5,33.0,-48.2,-45.5,8.4,-1190.0,-11.4,126.3,104.5,-46.1,-66.6,-43.9,-91.4,-9.9,-3486.0,102.5,-26.6,-2368.5,-37.8,-67.5,-67.3,0,0,1752,0,43,0,
0.9733,37.2,-3.0,90.1,53.1,70.4,-1.2,-4.5,31.1,-1041.3,2.1,158.3,137.1,-13.5,-33.0,-5.7,-54.8,-9.9,-3458.1,141.7,9.9,-2337.0,-6.0,-33.0,-36.5,0,0,1758,0,44,0,
0.9767,-29.1,-24.5,66.7,39.9,38.1,-24.9,-26.6,57.0,-1338.8,-12.9,128.7,105.1,-37.4,-61.2,-31.7,-85.4,-9.6,-3467.4,116.0,-17.0,-2350.5,-35.7,-63.3,-68.1,0,0,1764,0,45,0,
0.9800,-3.6,-23.6,73.9,32.1,53.3,-24.6,-25.7,15.8,-966.9,14.4,147.5,123.6,-38.3,-44.4,-16.4,-64.7,-9.6,-3480.0,122.3,-14.3,-2352.0,-14.1,-45.0,-53.8,0,0,1770,0,46,0,
0.9833,14.7,-18.6,64.3,30.0,40.8,-25.8,-29.3,24.5,-1190.0,-8.1,128.1,103.3,-44.6,-63.0,-26.9,-80.3,-9.6,-3479.7,111.5,-23.0,-2357.7,-33.3,-59.4,-65.2,0,0,1776,0,47,0,
0.9867,-3.0,-7.5,78.4,51.0,58.4,-4.5,-12.3,66.6,-1190.0,12.9,144.5,123.3,-27.3,-44.4,-9.6,-61.1,-9.6,-3450.6,132.2,-1.5,-2325.9,-13.8,-36.9,-57.4,0,0,1782,0,48,0,
0.9900,-8.7,-47.3,49.1,6.0,35.7,-38.0,-44.3,-17.0,-966.9,-12.9,122.1,99.4,-55.7,-66.0,-33.5,-83.0,-9.6,-3490.2,96.5,-40.3,-2364.3,-38.7,-59.7,-70.5,0,0,1788,0,49,0,
0.9933,7.2,1.5,77.2,52.2,63.2,3.6,-5.1,57.3,-1413.1,11.1,139.2,124.5,-27.6,-42.3,-4.8,-52.1,-9.6,-3464.4,128.6,4.2,-2337.3,-11.4,-29.7,-32.6,0,0,1794,0,50,0,
0.9967,-21.9,-18.3,71.5,38.4,57.8,-14.1,-21.2,40.9,-966.9,10.5,143.0,123.3,-30.8,-43.2,-9.3,-58.4,-9.6,-3461.4,124.7,-6.3,-2337.9,-7.8,-31.8,-42.7,0,0,1800,0,51,0,
1.0000,3.6,-34.7,53.3,10.8,38.1,-28.2,-38.0,-17.9,-1115.6,-13.8,122.4,101.8,-48.2,-66.3,-33.2,-80.3,-9.6,-3489.6,104.6,-34.4,-2365.8,-33.3,-49.5,-63.4,0,0,1806,0,52,0,
1.0033,27.3,24.2,104.1,77.4,84.8,33.6,22.7,89.3,-1190.0,21.2,163.6,145.7,8.4,-21.3,16.7,-32.0,-9.6,-3452.7,155.8,29.9,-2323.8,16.8,-1.2,-15.5,0,0,1812,0,53,0,
1.0067,-45.6,-67.7,30.5,-7.2,23.7,-36.3,-48.2,-16.7,-1041.3,-20.0,107.8,88.1,-76.1,-82.5,-48.4,-93.1,-9.6,-3503.7,84.2,-40.0,-2379.9,-39.3,-61.2,-69.0,0,0,1818,0,54,0,
1.0100,28.2,1.2,85.9,51.9,71.9,5.4,5.7,33.8,-1115.6,26.9,158.6,140.4,-3.6,-25.2,9.6,-37.7,-9.6,-3450.9,140.5,14.3,-2325.9,7.8,-9.6,-26.0,0,0,1824,0,55,0,
1.0133,-28.5,-24.8,58.7,33.6,43.5,-18.3,-15.6,50.2,-1190.0,-8.1,128.1,110.2,-32.3,-53.4,-17.0,-64.1,-9.9,-3472.2,113.9,-3.9,-2342.7,-24.0,-34.5,-42.1,0,0,1830,0,56,0,
1.0167,-10.2,-47.6,52.4,6.3,36.3,-40.1,-41.3,-17.3,-892.5,0.3,124.5,107.5,-46.7,-62.7,-29.3,-76.1,-9.6,-3504.9,106.4,-24.5,-2375.1,-26.1,-51.0,-62.2,0,0,1836,0,57,0,
1.0200,31.5,-3.3,81.7,53.7,67.4,1.5,4.2,50.8,-1115.6,23.3,150.8,133.5,-23.7,-30.6,6.0,-43.1,-9.6,-3451.2,139.0,9.3,-2318.4,4.8,-15.6,-27.5,0,0,1842,0,58,0,
1.0233,-41.1,-29.0,44.3,20.4,34.5,-26.4,-38.0,32.3,-1264.4,-20.3,117.1,99.7,-63.2,-69.6,-32.0,-83.6,-9.9,-3477.0,99.2,-16.4,-2345.7,-32.1,-55.2,-77.1,0,0,1848,0,59,0,
1.0267,7.5,-41.0,67.9,28.2,59.6,-13.2,-13.8,1.2,-1115.6,11.7,145.4,128.1,-33.8,-41.4,-4.8,-52.1,-10.2,-3460.2,118.7,-4.2,-2326.5,-12.9,-24.3,-34.4,0,0,1854,0,60,0,
1.0300,-21.0,-26.3,56.6,32.4,38.1,-31.8,-23.9,40.0,-1338.8,-16.1,121.8,102.1,-36.2,-56.1,-17.0,-70.7,-9.6,-3491.1,110.0,-21.5,-2361.3,-30.6,-46.2,-55.9,0,0,1860,0,61,0,
1.0333,-8.4,-34.4,63.4,26.7,48.2,-24.9,-21.5,28.1,-966.9,9.0,135.6,115.3,-32.3,-44.1,-7.5,-54.2,-9.6,-3480.0,114.8,-15.2,-2349.0,-10.8,-36.3,-55.0,0,0,1866,0,62,0,
1.0367,-4.8,-47.9,41.3,-3.6,21.3,-42.5,-35.0,-20.3,-1115.6,-17.0,111.7,87.5,-55.4,-64.8,-28.1,-71.3,-9.6,-3512.4,96.2,-50.2,-2376.6,-34.5,-52.8,-75.3,0,0,1872,0,63,0,
1.0400,-9.6,-20.1,64.9,37.5,45.2,-4.5,-0.3,60.6,-1190.0,6.6,130.8,110.5,-32.0,-43.2,-3.6,-50.3,-9.9,-3454.2,118.1,-6.0,-2317.8,-14.7,-28.2,-51.1,0,0,1878,0,64,0,
1.0433,-41.7,-62.3,35.0,-14.1,15.6,-47.9,-37.1,-17.3,-1115.6,-14.1,108.4,83.9,-57.8,-67.5,-30.8,-74.9,-9.6,-3490.8,92.0,-54.7,-2356.5,-34.5,-52.8,-73.8,0,0,1884,0,65,0,
1.0467,-15.3,-41.9,42.8,0.0,17.4,-36.6,-24.2,1.2,-1115.6,-4.5,115.0,87.2,-54.5,-62.7,-18.8,-67.4,-9.6,-3492.0,98.0,-43.9,-2353.2,-30.6,-49.2,-74.7,0,0,1890,0,66,0,
1.0500,-4.5,-15.0,65.5,31.5,38.1,-13.5,-2.7,58.2,-1264.4,11.1,132.6,106.6,-33.5,-38.7,4.2,-45.2,-9.6,-3465.3,122.0,-16.1,-2320.8,-14.1,-24.3,-46.9,0,0,1896,0,67,0,
1.0533,-41.7,-82.3,12.0,-39.3,-12.6,-76.1,-63.7,-50.2,-966.9,-49.0,86.0,59.1,-80.3,-88.8,-50.2,-97.6,-9.3,-3512.4,66.5,-79.8,-2372.4,-57.2,-80.1,-105.8,0,0,1902,0,68,0,
1.0567,23.4,7.2,81.1,45.9,53.3,3.6,14.1,61.2,-1264.4,26.0,142.7,121.8,-14.1,-31.5,10.2,-33.2,-9.6,-3456.3,137.5,-3.9,-2310.9,3.0,-11.7,-31.4,0,0,1908,0,69,0,
1.0600,-60.3,-51.8,31.7,-7.2,5.7,-50.0,-44.3,15.8,-1264.4,-33.2,97.4,76.4,-72.2,-83.7,-44.5,-89.6,-9.9,-3502.8,87.2,-53.8,-2355.0,-53.0,-65.1,-92.7,0,0,1914,0,70,0,
1.0633,-1.8,-8.4,65.2,16.8,40.8,-23.7,-21.2,-0.3,-966.9,10.2,131.7,111.1,-42.8,-54.3,-14.0,-59.6,-9.6,-3489.6,113.0,-31.1,-2347.2,-18.3,-34.5,-49.3,0,0,1920,0,71,0,
1.0667,12.3,-21.6,80.8,54.3,56.9,-9.3,-7.5,66.6,-1190.0,15.8,149.3,124.5,-12.0,-38.1,0.6,-50.6,-9.6,-3456.9,138.1,3.0,-2310.0,-1.8,-27.3,-44.8,0,0,1926,0,72,0,
1.0700,-34.2,-59.0,49.1,9.3,31.2,-43.7,-45.2,4.5,-1115.6,-7.2,119.5,99.4,-60.8,-71.1,-34.1,-78.5,-9.9,-3491.1,101.0,-34.7,-2342.4,-32.7,-50.4,-75.6,0,0,1932,0,73,0,
1.0733,36.3,-10.5,93.1,57.3,76.7,-2.1,-9.3,27.2,-1041.3,28.1,162.8,145.1,-12.6,-30.6,9.3,-41.9,-9.6,-3466.8,145.9,12.8,-2315.4,8.7,-24.9,-25.4,0,0,1938,0,74,0,
1.0767,-30.6,-29.0,61.3,42.0,44.9,-15.0,-25.7,49.9,-1338.8,-11.4,128.7,109.0,-41.9,-60.3,-19.1,-69.2,-9.6,-3487.5,116.9,-9.0,-2338.2,-26.7,-46.8,-49.9,0,0,1944,0,75,0,
1.0800,-1.5,-36.2,72.4,36.6,62.9,-15.6,-20.9,13.1,-966.9,12.3,147.5,130.8,-23.1,-37.8,-7.2,-57.2,-9.6,-3487.5,125.6,-4.2,-2332.8,-8.7,-32.1,-35.3,0,0,1950,0,76,0,
1.0833,16.2,-27.5,61.9,37.2,50.0,-15.9,-20.6,24.2,-1115.6,-8.1,130.2,111.1,-33.2,-58.2,-20.3,-68.0,-9.9,-3495.9,116.0,-15.8,-2351.4,-20.4,-44.4,-56.5,0,0,1956,0,77,0,
1.0867,4.8,-8.4,83.2,60.3,68.3,2.4,-0.9,73.5,-1115.6,15.5,154.1,131.4,-19.2,-38.1,-3.3,-53.0,-9.6,-3471.9,137.8,10.2,-2319.0,-5.1,-23.4,-33.5,0,0,1962,0,78,0,
1.0900,-5.1,-50.9,42.5,7.2,35.7,-37.2,-37.1,-16.1,-892.5,-13.5,115.0,98.8,-52.4,-62.1,-29.0,-77.9,-9.6,-3509.1,93.5,-43.3,-2356.8,-36.0,-54.0,-61.9,0,0,1968,0,79,0,
1.0933,6.9,-14.7,64.0,48.9,58.4,-1.5,-1.2,58.2,-1264.4,3.6,126.0,114.1,-29.0,-45.0,-6.6,-57.8,-9.9,-3479.1,119.3,0.0,-2324.7,-17.4,-35.1,-44.8,0,0,1974,0,80,0,
1.0967,-20.7,-21.3,47.6,19.2,37.5,-27.3,-24.2,33.8,-1115.6,-4.5,115.9,95.9,-39.2,-54.3,-17.9,-67.1,-9.9,-3488.7,97.4,-33.2,-2333.1,-26.4,-47.1,-59.5,0,0,1980,0,81,0,
1.1000,-2.1,-65.9,25.1,-12.6,16.5,-41.3,-43.1,-28.7,-966.9,-30.2,91.4,73.8,-71.3,-76.5,-41.8,-89.6,-9.9,-3508.8,72.5,-62.2,-2356.2,-54.2,-70.5,-81.0,0,0,1986,0,82,0,
1.1033,23.7,1.5,79.9,56.7,60.8,9.0,14.7,77.7,-1264.4,18.2,139.8,121.2,-9.9,-30.3,12.0,-41.6,-9.6,-3459.9,134.0,0.6,-2298.3,-0.3,-19.5,-39.2,0,0,1992,0,83,0,
1.1067,-48.6,-87.1,8.7,-27.3,-0.9,-54.8,-57.4,-26.3,-966.9,-48.4,80.0,61.2,-79.1,-91.5,-54.7,-106.0,-9.6,-3525.9,63.8,-74.7,-2368.8,-64.1,-79.8,-104.3,0,0,1998,0,84,0,
1.1100,19.8,-17.7,62.2,30.3,46.7,-18.3,-1.2,23.6,-1041.3,-6.9,129.3,110.8,-35.3,-39.0,0.0,-51.8,-9.9,-3495.6,116.3,-24.2,-2334.3,-19.8,-30.9,-45.4,0,0,2004,0,85,0,
1.1133,-33.3,-44.3,39.5,16.2,19.8,-36.9,-21.5,43.9,-1413.1,-26.6,101.5,84.5,-58.1,-66.9,-24.8,-76.1,-9.3,-3507.9,90.2,-37.1,-2348.4,-46.2,-53.4,-70.8,0,0,2010,0,86,0,
1.1167,-13.8,-61.4,25.4,-12.9,15.6,-50.6,-39.8,-23.0,-966.9,-36.5,95.0,80.3,-83.6,-72.0,-36.5,-84.8,-9.9,-3518.1,70.4,-61.0,-2355.6,-43.8,-64.5,-89.1,0,0,2016,0,87,0,
1.1200,25.8,-7.5,65.5,39.0,48.5,0.9,6.0,46.3,-1338.8,-0.3,123.6,108.4,-34.7,-42.0,-1.5,-53.6,-9.6,-3492.9,110.6,-17.9,-2330.1,-21.0,-29.1,-49.9,0,0,2022,0,88,0,
1.1233,-40.2,-45.5,36.5,6.0,15.0,-44.0,-38.0,24.5,-1190.0,-26.3,100.9,79.4,-60.5,-69.6,-35.3,-86.6,-9.6,-3519.3,87.8,-45.7,-2351.1,-49.7,-63.3,-79.2,0,0,2028,0,89,0,
1.1267,9.9,-27.8,65.2,27.6,52.4,-14.1,-12.9,1.8,-1041.3,11.7,139.8,123.3,-27.9,-39.9,-4.5,-55.4,-9.9,-3480.0,115.4,-20.6,-2309.1,-13.2,-34.8,-44.8,0,0,2034,0,90,0,
1.1300,-9.0,-18.6,61.6,34.2,38.4,-16.5,-18.5,44.8,-1190.0,-7.2,124.2,106.0,-24.9,-53.7,-16.4,-69.2,-9.6,-3491.7,114.8,-24.2,-2316.9,-35.1,-50.1,-59.5,0,0,2040,0,91,0,
1.1333,0.9,-26.6,65.8,34.8,50.9,-14.4,-15.3,34.9,-1041.3,15.8,137.4,120.9,-19.8,-38.4,-6.9,-55.1,-10.2,-3466.8,118.1,-16.7,-2291.1,-10.5,-34.5,-47.5,0,0,2046,0,92,0,
1.1367,7.8,-42.2,49.4,11.7,37.5,-24.3,-29.9,-6.0,-1041.3,-12.9,118.3,102.4,-41.3,-59.7,-24.8,-70.7,-9.3,-3498.9,100.7,-35.6,-2323.5,-36.6,-48.3,-69.6,0,0,2052,0,93,0,
1.1400,5.1,-4.2,77.8,60.0,61.4,13.8,5.1,73.5,-1190.0,10.8,140.1,127.2,-10.8,-39.3,1.5,-49.1,-9.9,-3481.5,132.5,9.3,-2302.2,-8.7,-20.1,-38.0,0,0,2058,0,94,0,
1.1433,-24.0,-41.6,57.5,11.1,38.1,-39.2,-35.9,0.6,-1115.6,-3.6,126.9,106.9,-44.6,-62.4,-26.0,-72.2,-9.9,-3511.2,112.7,-29.6,-2324.4,-27.9,-47.7,-65.8,0,0,2064,0,95,0,
1.1467,-1.5,-29.0,54.2,22.2,36.3,-16.8,-21.2,12.5,-1190.0,-2.1,121.5,100.9,-54.5,-62.4,-21.2,-67.7,-9.6,-3492.3,109.4,-33.2,-2311.8,-36.0,-42.0,-52.3,0,0,2070,0,96,0,
1.1500,12.9,-8.1,84.4,55.2,61.1,-0.6,-0.9,75.0,-1041.3,17.0,149.0,128.1,-15.9,-32.4,5.7,-44.3,-9.6,-3445.8,139.3,3.9,-2251.5,0.6,-23.4,-47.5,0,0,2076,0,97,0,
1.1533,-28.5,-79.6,19.8,-24.9,1.2,-68.6,-64.3,-41.8,-966.9,-24.8,92.3,71.1,-70.4,-84.3,-44.8,-95.8,-9.6,-3516.3,72.5,-72.6,-2328.3,-48.2,-74.7,-97.1,0,0,2082,0,98,0,
1.1567,35.4,6.0,86.8,58.8,62.9,-2.7,11.7,63.9,-1338.8,19.7,150.5,129.9,1.8,-22.5,23.3,-33.5,-9.9,-3457.5,141.4,2.7,-2260.5,3.6,-11.1,-36.5,0,0,2088,0,99,0,
1.1600,-48.6,-58.4,34.4,2.7,12.3,-58.7,-44.9,16.1,-1338.8,-26.9,103.9,82.4,-51.5,-73.8,-40.3,-89.3,-9.6,-3494.7,91.1,-49.9,-2301.3,-38.4,-65.7,-82.5,0,0,2094,0,100,0,
1.1633,3.6,-41.9,53.0,12.9,35.7,-34.8,-21.2,-6.6,-1041.3,-2.1,127.5,105.1,-35.3,-49.5,-16.1,-64.4,-9.3,-3483.0,109.4,-40.0,-2279.7,-31.2,-39.3,-59.2,0,0,2100,0,101,0,
1.1667,18.6,-6.6,67.0,43.8,43.2,-14.4,2.1,67.2,-1115.6,10.8,127.8,107.5,-19.8,-44.4,-4.8,-57.2,-9.9,-3474.0,120.8,-16.1,-2265.3,-22.8,-34.8,-54.7,0,0,2106,0,102,0,
1.1700,-32.4,-62.6,29.6,-4.2,13.8,-53.9,-36.5,3.6,-1041.3,-19.1,100.0,80.3,-67.7,-75.0,-39.1,-86.3,-9.9,-3510.6,81.8,-56.8,-2303.1,-48.5,-64.5,-80.1,0,0,2112,0,103,0,
1.1733,38.4,-4.2,76.0,36.9,56.3,-7.2,5.7,32.9,-1115.6,15.2,139.8,118.3,-23.4,-29.1,2.1,-46.7,-9.6,-3480.0,127.7,-17.3,-2262.6,-10.8,-22.8,-41.8,0,0,2118,0,104,0,
1.1767,-26.7,-5.1,50.0,23.1,24.3,-33.9,-21.2,54.4,-1264.4,-14.6,107.8,87.2,-54.8,-63.6,-29.6,-80.6,-9.6,-3501.9,98.3,-34.7,-2285.4,-46.2,-60.0,-77.1,0,0,2124,0,105,0,
1.1800,0.0,2.1,65.8,20.7,46.4,-23.1,-16.5,19.1,-892.5,7.8,128.4,111.7,-32.0,-40.2,-12.0,-60.2,-9.6,-3470.7,110.0,-27.5,-2255.1,-14.4,-41.7,-57.1,0,0,2130,0,106,0,
1.1833,13.8,-56.6,53.6,26.4,41.1,-20.7,-13.8,24.2,-1115.6,6.3,121.5,102.7,-22.5,-54.9,-19.7,-70.7,-9.9,-3484.5,112.4,-23.0,-2264.1,-23.7,-46.2,-58.3,0,0,2136,0,107,0,
1.1867,0.0,-9.9,73.6,48.9,64.7,19.8,3.3,72.6,-1115.6,9.0,134.7,118.3,-16.2,-33.6,-6.6,-55.7,-9.9,-3456.6,130.1,-2.1,-2235.9,-14.1,-31.8,-43.3,0,0,2142,0,108,0,
1.1900,-7.2,-49.1,46.7,3.3,30.9,-41.3,-35.9,-14.6,-1041.3,-0.6,116.2,96.2,-46.4,-62.4,-29.3,-78.5,-9.6,-3502.5,100.4,-44.2,-2279.7,-30.9,-51.3,-68.1,0,0,2148,0,109,0,
1.1933,6.3,-6.3,73.9,50.1,58.1,-9.6,3.3,60.9,-1264.4,21.2,133.2,116.8,-21.6,-42.0,-2.1,-50.9,-9.6,-3465.9,126.8,-1.5,-2237.7,-12.6,-28.5,-42.7,0,0,2154,0,110,0,
1.1967,-21.9,-30.8,65.5,35.1,47.9,-15.0,-15.0,39.4,-1115.6,15.8,128.4,113.8,-46.4,-52.5,-16.1,-62.3,-9.6,-3454.8,118.1,-20.3,-2227.8,-12.9,-38.1,-54.1,0,0,2160,0,111,0,
1.2000,1.5,-47.6,38.6,1.5,20.4,-41.6,-40.1,-18.5,-818.1,-22.1,100.9,83.6,-61.1,-70.2,-38.0,-84.5,-9.9,-3492.6,84.2,-60.1,-2266.2,-41.7,-61.2,-76.2,0,0,2166,0,112,0,
1.2033,30.6,7.8,93.7,75.3,71.6,21.0,21.5,92.6,-1264.4,24.8,149.9,131.4,-6.0,-24.3,15.2,-33.8,-9.9,-3438.0,144.4,9.9,-2211.6,4.8,-8.7,-24.5,0,0,2172,0,113,0,
1.2067,-43.8,-76.0,18.3,-14.1,4.2,-61.4,-55.3,-15.2,-1041.3,-45.1,87.5,70.5,-66.5,-86.4,-50.8,-97.0,-9.6,-3491.7,66.2,-68.1,-2264.7,-50.6,-69.9,-83.1,0,0,2178,0,114,0,
1.2100,30.6,-13.8,75.1,46.8,54.2,-16.5,0.9,31.1,-1115.6,20.3,140.1,121.8,-13.2,-31.8,9.0,-43.4,-9.9,-3447.3,124.1,-19.4,-2222.1,-5.1,-24.0,-46.9,0,0,2184,0,115,0,
1.2133,-28.8,-33.2,51.8,29.7,25.8,-32.4,-22.1,51.7,-1338.8,-11.4,109.6,90.5,-36.2,-57.3,-14.6,-71.3,-9.6,-3479.1,102.2,-41.2,-2250.0,-38.4,-47.7,-71.1,0,0,2190,0,116,0,
1.2167,-8.4,-58.7,39.2,-1.2,16.2,-55.7,-44.0,-20.6,-818.1,-15.8,103.9,83.3,-57.5,-65.4,-26.9,-80.3,-9.9,-3507.9,91.1,-64.5,-2282.4,-46.5,-60.0,-79.8,0,0,2196,0,117,0,
1.2200,33.6,-6.6,71.5,47.4,47.0,-9.3,3.9,42.7,-1264.4,17.3,128.4,107.8,-23.4,-37.2,10.8,-43.4,-9.3,-3468.0,117.2,-24.8,-2241.0,-19.8,-27.3,-49.0,0,0,2202,0,118,0,
1.2233,-39.6,-56.9,26.6,3.6,5.7,-56.0,-40.7,16.1,-1041.3,-26.6,91.4,74.4,-59.6,-72.9,-26.9,-80.9,-9.6,-3510.0,78.5,-60.4,-2282.1,-52.4,-66.0,-94.5,0,0,2208,0,119,0,
1.2267,11.7,-30.5,59.0,18.3,39.9,-22.8,-13.2,-4.2,-892.5,2.4,125.4,106.3,-32.9,-40.5,0.6,-48.5,-9.6,-3488.7,108.2,-38.5,-2265.6,-27.0,-33.9,-67.9,0,0,2214,0,120,0,
1.2300,-10.8,-26.0,48.8,25.8,25.2,-20.1,-14.1,35.2,-1190.0,-13.8,104.5,84.5,-34.1,-56.7,-12.3,-68.6,-9.3,-3486.3,98.9,-39.1,-2261.7,-43.2,-50.7,-77.4,0,0,2220,0,121,0,
1.2333,0.6,-35.9,55.1,29.4,46.7,-7.5,-14.1,27.8,-1190.0,5.4,122.4,108.7,-37.7,-44.7,-3.9,-59.0,-9.6,-3466.2,107.3,-24.5,-2244.9,-24.9,-42.9,-55.0,0,0,2226,0,122,0,
1.2367,8.4,-41.6,40.4,8.1,25.5,-45.2,-31.4,-14.0,-1115.6,-12.6,103.6,86.9,-46.4,-57.6,-18.2,-72.5,-9.6,-3501.9,88.1,-53.2,-2285.4,-30.3,-55.8,-69.6,0,0,2232,0,123,0,
1.2400,6.3,-6.3,74.2,51.6,54.5,-1.8,3.9,68.4,-1190.0,6.9,129.9,113.5,-21.6,-37.8,7.8,-49.4,-9.9,-3468.9,123.2,-6.3,-2259.0,-13.8,-30.9,-54.1,0,0,2238,0,124,0,
1.2433,-22.2,-47.3,45.2,10.5,34.5,-29.4,-27.8,-0.3,-1041.3,-12.6,113.8,97.1,-44.3,-56.1,-18.5,-70.4,-9.6,-3504.9,92.6,-44.8,-2295.3,-29.7,-50.1,-59.2,0,0,2244,0,125,0,
1.2467,3.9,-18.6,57.5,28.2,38.4,-15.0,-15.6,13.1,-1190.0,-6.0,115.6,93.5,-43.1,-54.9,-14.3,-65.9,-9.6,-3494.4,101.6,-42.1,-2292.9,-32.4,-46.5,-56.2,0,0,2250,0,126,0,
1.2500,9.9,-7.2,75.7,57.9,60.2,5.4,5.1,71.7,-966.9,27.2,138.3,118.9,-13.5,-31.5,13.4,-41.6,-9.3,-3472.2,125.9,-5.4,-2271.3,-3.3,-21.9,-35.9,0,0,2256,0,127,0,
1.2533,-27.9,-61.1,21.2,-15.0,7.5,-55.4,-55.9,-39.1,-1115.6,-24.2,89.9,72.9,-69.5,-82.2,-41.8,-90.2,-9.6,-3536.1,69.8,-73.5,-2352.9,-55.7,-70.2,-85.5,0,0,2262,0,128,0,
1.2567,39.9,9.3,89.2,69.9,74.0,15.0,17.9,69.3,-1190.0,31.1,149.9,132.3,7.8,-21.0,23.9,-27.6,-9.3,-3476.1,141.1,6.3,-2289.9,5.7,-7.2,-23.6,0,0,2268,0,129,0,
1.2600,-51.6,-66.8,31.7,5.7,13.5,-56.6,-44.6,11.6,-1264.4,-20.3,99.4,80.0,-49.7,-71.7,-32.6,-81.8,-9.6,-3493.5,88.4,-49.0,-2316.6,-36.6,-61.8,-79.2,0,0,2274,0,130,0,
1.2633,4.8,-36.8,56.0,20.4,39.3,-30.6,-21.2,-8.7,-966.9,9.3,127.2,109.3,-30.8,-49.2,-9.6,-57.5,-9.6,-3488.4,107.0,-40.3,-2311.8,-13.5,-35.4,-55.9,0,0,2280,0,131,0,
1.2667,16.2,-11.1,69.4,53.1,50.0,-9.9,1.2,61.5,-1264.4,-0.9,132.0,114.4,-18.0,-40.5,1.8,-47.9,-9.9,-3480.3,125.0,-14.3,-2306.1,-13.2,-25.5,-55.6,0,0,2286,0,132,0,
1.2700,-32.1,-62.9,34.1,3.0,19.8,-38.3,-41.3,-4.2,-966.9,-24.5,107.8,86.3,-55.7,-72.6,-35.3,-81.8,-9.6,-3507.6,90.2,-57.4,-2338.5,-40.8,-56.1,-87.3,0,0,2292,0,133,0,
1.2733,29.1,-8.7,76.9,42.3,53.0,-30.3,-5.1,19.1,-1115.6,28.4,142.4,120.6,-18.9,-33.6,10.8,-43.7,-9.6,-3476.4,131.3,-20.3,-2315.7,-5.4,-27.0,-24.8,0,0,2298,0,134,0,
1.2767,-36.9,-31.4,49.4,25.5,23.1,-40.4,-26.9,43.0,-1190.0,-12.3,109.9,86.6,-43.1,-63.3,-21.8,-79.4,-9.6,-3504.6,105.2,-42.4,-2335.2,-37.8,-59.1,-80.7,0,0,2304,0,135,0,
1.2800,-6.6,-25.7,67.9,24.3,44.3,-33.0,-17.6,9.9,-1041.3,17.3,137.1,111.7,-36.8,-43.8,-14.6,-60.8,-9.6,-3500.4,121.1,-34.1,-2335.5,-12.9,-36.9,-53.5,0,0,2310,0,136,0,
1.2833,10.5,-18.6,54.8,24.3,29.4,-30.9,-18.8,19.7,-1115.6,-8.7,115.9,92.0,-64.1,-59.4,-23.3,-74.6,-9.9,-3494.1,109.7,-45.7,-2329.2,-27.9,-47.7,-61.0,0,0,2316,0,137,0,
1.2867,-5.4,-8.1,74.5,49.5,48.2,-20.1,-6.0,61.5,-1190.0,20.0,136.5,119.2,-23.7,-40.5,-6.9,-54.5,-9.9,-3446.7,128.6,-14.3,-2295.9,-3.0,-30.3,-52.0,0,0,2322,0,138,0,
1.2900,-3.6,-34.4,52.4,8.7,25.5,-48.2,-34.1,-16.4,-818.1,0.6,118.3,95.9,-41.9,-56.4,-29.3,-77.3,-9.3,-3508.2,105.5,-52.6,-2348.1,-27.0,-54.6,-68.4,0,0,2328,0,139,0,
1.2933,1.2,-5.1,75.7,53.1,50.3,-9.6,0.3,56.2,-1338.8,11.1,136.5,115.6,2.7,-41.4,-6.6,-57.2,-9.3,-3470.4,136.4,-18.8,-2310.9,-9.9,-35.4,-55.9,0,0,2334,0,140,0,
1.2967,-19.8,10.2,76.9,41.4,47.3,-18.3,-15.0,43.6,-1041.3,10.2,135.0,114.1,-14.7,-41.1,-12.0,-64.4,-9.9,-3489.9,128.0,-20.0,-2334.0,-14.1,-41.7,-57.4,0,0,2340,0,141,0,
1.3000,-1.2,-44.0,47.0,8.1,20.4,-50.0,-40.1,-19.7,-966.9,-7.8,112.0,92.9,-43.1,-64.8,-33.2,-82.7,-9.9,-3519.3,100.7,-55.3,-2365.8,-34.2,-61.8,-87.6,0,0,2346,0,142,0,
1.3033,26.7,2.4,105.3,82.5,77.0,18.9,21.2,91.1,-1115.6,40.4,164.2,141.8,15.3,-13.8,20.6,-32.0,-10.2,-3458.7,160.9,12.8,-2302.5,15.6,-9.6,-17.6,0,0,2352,0,143,0,
1.3067,-46.5,-66.2,42.5,3.6,16.5,-59.0,-56.5,-11.4,-1115.6,-7.2,109.3,87.2,-51.5,-78.0,-47.2,-97.0,-9.6,-3518.7,96.8,-54.1,-2363.1,-36.9,-75.6,-84.9,0,0,2358,0,144,0,
1.3100,23.4,-0.6,93.7,60.6,68.3,7.8,6.6,40.3,-1190.0,32.3,153.5,131.4,4.8,-27.0,6.3,-42.8,-10.2,-3481.2,144.1,-5.4,-2334.6,5.7,-21.0,-27.2,0,0,2364,0,145,0,
1.3133,-28.5,-12.0,73.6,48.9,40.2,-16.8,-15.0,63.3,-1264.4,-0.3,131.1,106.9,-17.1,-49.2,-14.6,-68.0,-9.9,-3491.7,128.3,-20.3,-2340.6,-20.4,-47.1,-57.7,0,0,2370,0,146,0,
1.3167,-15.3,-48.2,50.3,11.1,23.1,-40.1,-35.6,-8.4,-818.1,-6.3,116.8,95.0,-40.1,-60.3,-29.6,-76.4,-9.9,-3516.0,102.8,-55.6,-2363.7,-32.7,-54.3,-68.4,0,0,2376,0,147,0,
1.3200,24.9,-4.5,79.6,55.8,53.3,7.2,8.1,56.8,-1487.5,10.2,140.7,119.7,-13.5,-30.9,3.3,-45.2,-9.6,-3484.8,133.4,-14.0,-2336.4,-5.7,-27.0,-38.9,0,0,2382,0,148,0,
1.3233,-51.9,-50.6,39.2,14.4,12.6,-40.4,-34.7,32.6,-1264.4,-11.1,102.1,81.2,-50.0,-70.5,-38.0,-86.3,-9.6,-3517.5,91.1,-50.5,-2369.4,-34.2,-63.9,-81.9,0,0,2388,0,149,0,
1.3267,-1.5,-21.0,67.6,27.6,42.6,-17.7,-9.0,8.7,-1190.0,13.5,132.6,109.9,-36.2,-44.1,-5.1,-55.7,-10.2,-3517.8,113.6,-36.5,-2363.7,-12.0,-29.1,-51.1,0,0,2394,0,150,0,
1.3300,-28.2,-22.5,54.2,28.8,24.6,-17.7,-14.1,45.7,-1338.8,-4.5,104.5,84.5,-41.0,-61.8,-22.1,-73.1,-9.6,-3518.1,98.3,-39.7,-2361.6,-39.9,-52.2,-63.4,0,0,2400,0,151,0,
1.3333,-9.9,-32.6,63.4,30.0,38.4,-20.4,-11.4,37.3,-1041.3,17.0,123.6,103.3,-36.5,-45.3,-8.7,-53.3,-9.6,-3507.3,111.5,-35.9,-2350.2,-20.1,-34.5,-47.2,0,0,2406,0,152,0,
1.3367,-0.3,-28.1,44.3,10.2,18.9,-36.9,-28.7,-5.1,-1115.6,-17.3,102.1,84.5,-58.7,-63.9,-27.2,-74.0,-9.6,-3540.9,90.2,-53.2,-2387.7,-47.3,-54.3,-73.5,0,0,2412,0,153,0,
1.3400,-4.5,-3.6,68.5,47.7,36.0,-6.0,-0.9,73.2,-1264.4,0.6,120.0,101.5,-12.6,-40.8,-4.2,-52.7,-9.6,-3500.4,117.5,-25.4,-2340.3,-10.8,-33.0,-62.2,0,0,2418,0,154,0,
1.3433,-32.1,-58.1,42.2,2.1,15.0,-27.9,-30.2,2.7,-1041.3,-9.3,103.6,81.5,-53.0,-60.6,-26.3,-71.9,-9.6,-3507.6,93.8,-71.7,-2356.8,-37.5,-53.4,-77.7,0,0,2424,0,155,0,
1.3467,-6.3,-31.1,49.4,15.6,13.5,-55.7,-25.7,10.5,-1115.6,-10.8,103.6,82.7,-33.2,-58.5,-20.0,-72.5,-9.9,-3518.7,99.8,-56.8,-2362.5,-32.1,-54.6,-74.1,0,0,2430,0,156,0,
1.3500,8.1,-12.9,74.5,49.8,42.0,-9.0,5.1,77.1,-1190.0,19.1,129.6,109.0,-7.2,-34.5,3.9,-45.5,-9.6,-3487.2,127.1,-22.4,-2332.8,-6.6,-25.2,-41.2,0,0,2436,0,157,0,
1.3533,-25.2,-74.8,25.4,-14.7,-3.6,-81.2,-57.4,-34.1,-1041.3,-26.9,91.7,71.4,-58.7,-84.3,-47.8,-93.4,-9.9,-3547.5,77.0,-81.0,-2392.5,-49.7,-73.2,-88.8,0,0,2442,0,158,0,
1.3567,38.4,12.6,91.3,69.6,63.8,14.7,22.4,73.2,-1264.4,34.1,150.2,127.8,8.1,-22.2,17.6,-27.3,-9.6,-3480.9,143.2,-6.6,-2322.6,8.1,-7.2,-25.1,0,0,2448,0,159,0,
1.3600,-46.8,-50.3,37.1,12.0,12.3,-48.2,-39.2,20.6,-1264.4,-14.9,100.3,80.0,-45.5,-71.7,-38.6,-87.2,-10.2,-3498.3,89.0,-58.6,-2346.9,-42.0,-61.2,-76.8,0,0,2454,0,160,0,
1.3633,6.0,-31.4,60.4,24.6,37.8,-29.1,-16.2,-1.5,-966.9,12.3,126.9,110.5,-36.2,-50.7,-11.4,-59.9,-9.6,-3496.2,109.4,-38.8,-2339.4,-14.7,-40.5,-54.1,0,0,2460,0,161,0,
1.3667,21.3,-4.5,76.3,57.0,47.6,-5.1,3.3,68.7,-1264.4,7.2,131.4,112.3,-15.3,-42.9,-0.6,-50.0,-9.6,-3485.7,124.7,-17.3,-2324.4,-9.3,-29.1,-45.4,0,0,2466,0,162,0,
1.3700,-30.6,-56.6,40.1,5.4,15.6,-48.8,-42.2,1.2,-1041.3,-20.9,99.4,79.7,-56.3,-72.6,-37.7,-87.5,-9.6,-3526.8,84.5,-61.3,-2371.2,-41.1,-69.3,-82.8,0,0,2472,0,163,0,
1.3733,36.3,-6.9,78.1,49.5,57.5,0.3,7.5,26.6,-1190.0,12.6,136.2,116.8,-20.4,-35.4,1.5,-47.0,-9.9,-3490.8,125.3,-26.0,-2337.0,-9.9,-20.1,-52.6,0,0,2478,0,164,0,
1.3767,-32.4,-29.0,52.7,38.7,31.8,-18.6,-20.9,53.8,-1338.8,-12.3,106.3,90.8,-47.9,-65.1,-20.0,-76.7,-9.6,-3513.3,102.2,-37.1,-2353.8,-40.8,-54.6,-70.8,0,0,2484,0,165,0,
1.3800,-2.7,-25.4,70.0,36.0,53.0,-12.0,-13.2,21.8,-1041.3,13.2,135.0,118.0,-36.8,-46.2,-17.3,-61.7,-9.6,-3490.8,119.9,-29.9,-2333.7,-7.8,-37.5,-42.1,0,0,2490,0,166,0,
1.3833,18.3,-12.0,61.9,37.2,36.9,-18.9,-18.2,26.6,-1115.6,-12.6,115.9,98.5,-43.4,-61.5,-24.5,-75.2,-9.3,-3498.9,108.8,-35.6,-2344.2,-24.3,-51.0,-59.2,0,0,2496,0,167,0,
1.3867,-2.7,-9.3,78.1,54.3,51.8,0.3,-6.3,68.1,-1264.4,18.5,133.5,118.6,-20.1,-47.4,-9.3,-59.0,-9.6,-3487.2,133.7,-9.6,-2330.7,-9.3,-35.4,-44.8,0,0,2502,0,168,0,
1.3900,-1.5,-50.3,45.5,13.2,27.9,-35.4,-32.6,-11.9,-892.5,-1.8,113.2,96.5,-34.4,-63.6,-29.6,-76.1,-9.6,-3527.4,96.8,-54.7,-2360.7,-24.9,-53.1,-64.6,0,0,2508,0,169,0,
1.3933,9.0,-4.5,76.0,55.8,50.6,-6.9,-3.0,58.8,-1413.1,12.3,134.7,118.0,-8.1,-42.9,-3.6,-55.1,-9.6,-3480.6,129.8,-15.8,-2323.8,-8.1,-32.1,-33.5,0,0,2514,0,170,0,
1.3967,-14.4,-27.2,70.0,40.2,43.5,-23.4,-20.3,39.4,-1115.6,13.5,133.2,111.4,-24.0,-45.6,-11.4,-61.7,-9.3,-3488.4,120.2,-25.4,-2327.1,-12.0,-36.6,-45.7,0,0,2520,0,171,0,
1.4000,7.8,-45.8,46.1,9.3,18.6,-52.7,-45.8,-23.0,-966.9,-11.4,111.1,92.3,-48.2,-67.5,-32.3,-80.0,-9.6,-3530.1,96.8,-55.6,-2372.4,-37.2,-63.9,-76.5,0,0,2526,0,172,0,
1.4033,36.0,14.4,97.9,77.1,65.6,4.2,14.7,86.0,-1338.8,39.2,156.2,137.1,6.6,-18.9,22.7,-27.6,-9.6,-3478.2,148.9,7.5,-2317.2,9.6,-9.0,-21.2,0,0,2532,0,173,0,
1.4067,-39.0,-68.0,28.4,-5.1,5.1,-66.5,-59.5,-20.3,-966.9,-18.8,96.5,82.7,-56.6,-79.5,-45.7,-90.5,-9.9,-3535.2,80.0,-68.7,-2374.8,-38.4,-70.2,-92.1,0,0,2538,0,174,0,
1.4100,31.5,-3.0,81.1,51.6,56.3,-8.7,3.6,29.0,-1115.6,22.4,144.5,127.8,-8.1,-25.8,11.4,-38.0,-9.3,-3489.3,131.9,-17.6,-2325.6,3.9,-13.8,-34.4,0,0,2544,0,175,0,
1.4133,-24.0,-24.5,59.6,39.0,38.4,-2.7,-11.7,54.4,-1338.8,-6.0,118.9,104.2,-31.1,-55.2,-14.3,-62.9,-9.6,-3509.7,111.8,-26.3,-2341.2,-22.2,-39.9,-59.8,0,0,2550,0,176,0,
1.4167,-7.5,-46.1,45.8,8.7,26.4,-55.1,-36.5,-15.8,-892.5,-0.9,111.4,99.7,-54.8,-62.7,-24.8,-71.6,-9.6,-3520.8,92.6,-45.7,-2361.0,-23.7,-47.7,-59.5,0,0,2556,0,177,0,
1.4200,27.3,0.3,79.9,57.3,56.6,0.6,8.7,53.2,-1115.6,3.6,137.4,126.3,-24.6,-35.7,3.9,-44.3,-9.6,-3489.0,122.6,-9.9,-2329.5,-5.1,-21.9,-36.8,0,0,2562,0,178,0,
1.4233,-47.7,-50.0,38.9,15.9,20.7,-37.4,-32.9,27.8,-1115.6,-18.2,97.9,86.3,-63.5,-78.9,-38.3,-83.6,-9.6,-3530.1,85.1,-46.9,-2364.0,-43.8,-59.1,-75.9,0,0,2568,0,179,0,
1.4267,4.5,-9.0,70.0,32.7,54.2,-13.2,-7.5,6.6,-1041.3,-0.9,134.4,123.0,-35.6,-43.2,-7.2,-53.0,-9.6,-3515.1,111.8,-26.0,-2355.9,-16.8,-33.0,-44.5,0,0,2574,0,180,0,
1.4300,-18.0,-6.3,61.3,41.4,37.8,-18.9,-13.5,43.0,-1413.1,-9.9,120.0,104.8,-38.9,-60.0,-19.4,-72.5,-9.6,-3545.7,109.7,-26.3,-2379.0,-34.2,-51.0,-69.9,0,0,2580,0,181,0,
1.4333,-11.1,-62.3,62.5,37.2,51.2,-9.3,-8.1,31.7,-1115.6,4.5,133.2,118.6,-27.3,-54.3,-15.2,-62.3,-9.6,-3485.1,114.8,-22.7,-2328.9,-14.1,-33.0,-40.9,0,0,2586,0,182,0,
1.4367,-1.2,-58.7,46.1,15.3,30.9,-29.4,-27.2,-12.2,-1041.3,-14.6,112.3,101.5,-51.2,-68.1,-31.7,-79.4,-9.6,-3528.9,100.7,-48.1,-2373.6,-37.8,-57.0,-78.6,0,0,2592,0,183,0,
1.4400,-5.1,-12.0,76.6,58.8,55.4,3.3,4.2,73.2,-1338.8,3.0,137.4,124.8,-25.5,-47.4,-8.1,-56.6,-9.6,-3488.4,133.1,-2.1,-2325.0,-20.7,-30.6,-57.1,0,0,2598,0,184,0,
1.4433,-31.2,-50.0,52.4,13.8,28.8,-42.5,-34.1,1.2,-966.9,-8.4,120.0,103.9,-45.5,-66.3,-33.2,-77.6,-9.6,-3515.4,106.1,-45.1,-2358.6,-30.6,-53.4,-71.1,0,0,2604,0,185,0,
1.4467,-6.3,-32.6,59.6,30.0,31.5,-38.6,-26.0,15.5,-1264.4,-16.4,121.8,102.7,-38.0,-60.3,-23.9,-74.6,-9.9,-3522.6,110.3,-34.4,-2361.6,-35.4,-52.8,-65.2,0,0,2610,0,186,0,
1.4500,7.2,-0.9,88.0,60.0,53.6,-7.8,0.6,81.8,-1115.6,15.8,143.6,121.8,-3.9,-35.1,-0.3,-49.1,-9.3,-3495.9,141.4,-12.3,-2335.2,-11.1,-28.5,-50.8,0,0,2616,0,187,0,
1.4533,-29.7,-66.8,35.6,-7.2,8.1,-67.1,-60.1,-29.9,-966.9,-31.7,105.4,83.3,-64.7,-84.6,-52.6,-102.4,-9.9,-3543.3,88.1,-70.2,-2386.2,-55.4,-74.4,-89.7,0,0,2622,0,188,0,
1.4567,40.8,24.8,107.4,82.2,76.7,6.0,13.8,79.5,-1264.4,34.1,170.2,146.3,7.2,-21.6,14.3,-39.5,-9.6,-3478.5,159.4,9.9,-2322.3,2.1,-14.7,-26.9,0,0,2628,0,189,0,
1.4600,-47.4,-40.4,54.5,21.9,24.0,-48.8,-44.3,28.1,-1190.0,-16.7,120.3,97.4,-53.0,-74.1,-41.5,-88.1,-9.9,-3528.3,110.9,-40.9,-2369.1,-38.4,-65.7,-78.9,0,0,2634,0,190,0,
1.4633,5.4,-22.8,71.8,35.4,48.2,-31.2,-22.4,2.1,-1041.3,2.4,145.1,125.1,-30.2,-45.3,-15.8,-62.3,-9.6,-3513.3,123.5,-27.8,-2357.4,-21.0,-44.4,-61.0,0,0,2640,0,191,0,
1.4667,18.3,-8.1,93.1,71.1,61.4,-4.8,1.5,72.3,-1190.0,13.5,163.1,141.5,-17.4,-43.5,-2.4,-55.4,-9.9,-3498.3,151.9,2.1,-2330.4,-8.4,-30.0,-43.9,0,0,2646,0,192,0,
1.4700,-27.9,-51.2,58.7,20.1,30.3,-53.6,-47.0,5.1,-1115.6,-19.4,129.6,114.7,-52.1,-70.5,-36.8,-91.1,-9.6,-3522.9,113.0,-37.7,-2367.3,-46.5,-68.7,-79.5,0,0,2652,0,193,0,
1.4733,38.1,-7.2,97.3,63.9,70.4,0.6,0.9,30.2,-966.9,9.3,178.0,158.9,-19.2,-33.3,8.1,-46.7,-9.6,-3525.9,151.0,-0.6,-2365.8,-10.5,-24.0,-32.9,0,0,2658,0,194,0,
1.4767,-24.6,-21.9,83.5,61.2,53.6,-19.5,-20.9,56.2,-1190.0,-20.3,160.7,147.8,-33.8,-63.3,-32.0,-79.7,-9.6,-3522.0,135.5,3.6,-2363.1,-30.3,-52.8,-64.9,0,0,2664,0,195,0,
1.4800,4.2,-27.2,100.8,60.6,77.0,12.6,-10.2,18.5,-966.9,2.1,195.3,179.2,-16.8,-44.7,-15.8,-59.6,-9.9,-3535.5,160.0,12.0,-2374.2,-15.3,-34.8,-54.1,0,0,2670,0,196,0,
1.4833,28.2,-28.1,98.5,66.6,65.6,-24.9,-13.8,25.7,-966.9,3.9,201.0,187.8,-30.2,-60.3,-23.3,-68.9,-9.6,-3500.7,164.2,25.4,-2345.4,-24.3,-33.9,-55.0,0,0,2676,0,197,0,
1.4867,18.9,-6.3,126.6,93.0,83.9,-15.0,-7.2,68.4,-1041.3,7.5,235.6,213.2,-3.9,-36.3,-5.4,-55.1,-9.9,-3496.8,195.7,44.2,-2337.0,-6.6,-29.1,-23.3,0,0,2682,0,198,0,
1.4900,15.6,-36.5,102.0,57.6,67.1,-38.0,-35.6,-12.5,-892.5,1.8,224.0,204.6,-35.0,-60.0,-30.2,-76.7,-9.9,-3519.6,171.1,17.9,-2357.4,-30.3,-52.2,-61.9,0,0,2688,0,199,0,
1.4933,26.1,3.9,126.9,102.6,91.7,2.1,-5.7,60.9,-1190.0,4.5,246.1,235.6,-23.4,-48.3,-9.6,-62.0,-9.6,-3504.0,199.9,57.1,-2341.5,-24.9,-37.8,-41.2,0,0,2694,0,200,0,
1.4967,5.1,-19.8,126.3,96.0,96.5,-6.6,-15.3,47.5,-966.9,-0.6,258.9,253.2,-30.8,-56.1,-24.2,-65.9,-9.6,-3502.8,192.7,64.5,-2351.7,-19.5,-39.0,-42.1,0,0,2700,0,201,0,
1.5000,31.2,-28.4,106.5,70.5,74.0,-33.6,-40.7,-11.9,-966.9,-30.5,243.7,230.5,-57.8,-76.8,-45.4,-91.7,-9.9,-3548.7,174.7,30.2,-2392.8,-46.5,-66.0,-76.2,0,0,2706,0,202,0,
1.5033,64.2,34.7,166.1,147.3,128.6,27.0,17.0,103.9,-1190.0,9.6,303.1,293.0,11.4,-29.4,2.1,-46.4,-9.9,-3474.3,238.2,106.1,-2319.6,-7.8,-18.9,-27.2,0,0,2712,0,203,0,
1.5067,-4.8,-65.6,106.2,71.4,71.0,-49.7,-58.0,-0.6,-892.5,-39.2,260.1,249.4,-59.0,-88.8,-58.9,-105.4,-9.6,-3552.0,182.5,39.7,-2394.6,-61.4,-82.8,-88.2,0,0,2718,0,204,0,
1.5100,63.6,13.2,164.9,134.7,128.6,10.2,-2.4,50.8,-966.9,10.2,318.9,308.2,-11.1,-41.4,-6.9,-53.6,-9.6,-3515.4,239.4,97.4,-2360.4,-23.7,-33.9,-35.6,0,0,2724,0,205,0,
1.5133,21.0,-6.0,148.7,126.3,109.4,-7.2,-19.1,75.9,-1041.3,-11.4,305.5,301.3,-28.4,-55.2,-23.0,-72.5,-9.6,-3529.5,227.7,97.1,-2370.3,-42.0,-53.1,-68.1,0,0,2730,0,206,0,
1.5167,39.6,-27.5,138.0,97.8,104.6,-26.1,-38.6,3.3,-669.4,-18.5,310.0,304.0,-27.9,-63.9,-39.4,-85.7,-9.6,-3531.6,219.4,77.4,-2382.0,-47.9,-64.5,-69.0,0,0,2736,0,207,0,
1.5200,84.9,30.8,189.1,153.3,139.0,17.7,6.6,74.7,-1041.3,13.5,352.4,341.6,6.9,-28.8,0.6,-50.0,-9.6,-3499.8,269.1,125.2,-2343.9,-14.1,-27.9,-37.1,0,0,2742,0,208,0,
1.5233,12.6,-20.4,148.4,116.4,100.7,-27.3,-36.5,47.8,-966.9,-18.2,315.1,307.6,-24.0,-69.0,-39.1,-91.1,-9.9,-3534.6,233.7,89.6,-2382.9,-64.7,-70.2,-76.8,0,0,2748,0,209,0,
1.5267,63.0,10.2,170.3,125.4,126.2,-0.9,-10.2,23.3,-818.1,-7.5,341.3,332.7,-3.0,-32.7,-12.6,-61.1,-9.6,-3526.5,249.6,101.9,-2374.2,-21.9,-40.8,-60.4,0,0,2754,0,210,0,
1.5300,36.6,5.7,152.3,124.5,106.1,-12.6,-19.1,57.0,-1264.4,-25.1,315.9,313.3,-19.2,-54.3,-28.1,-81.5,-9.6,-3519.6,234.0,101.6,-2365.5,-47.6,-61.5,-63.7,0,0,2760,0,211,0,
1.5333,41.1,-22.8,153.2,117.3,116.3,-18.6,-16.5,42.1,-818.1,-0.3,327.0,328.8,-27.3,-48.9,-18.8,-68.0,-9.3,-3514.8,236.7,108.5,-2362.2,-24.0,-48.9,-52.6,0,0,2766,0,212,0,
1.5367,55.5,-21.3,141.5,98.4,97.4,-34.5,-32.0,-0.6,-966.9,-21.2,314.5,310.9,-32.3,-60.9,-35.9,-85.7,-9.9,-3543.9,226.6,83.4,-2395.2,-50.9,-64.2,-69.6,0,0,2772,0,213,0,
1.5400,50.4,8.7,161.9,135.0,115.7,-6.6,-1.8,80.9,-1115.6,6.0,327.3,323.1,-5.4,-35.1,-6.9,-57.8,-9.6,-3502.8,247.8,109.7,-2349.0,-19.8,-40.8,-52.6,0,0,2778,0,214,0,
1.5433,19.2,-32.0,139.5,92.4,96.5,-30.3,-31.7,8.4,-1041.3,-8.4,308.2,301.6,-32.9,-64.5,-30.5,-80.3,-9.9,-3525.3,218.5,72.6,-2369.4,-39.0,-57.9,-62.8,0,0,2784,0,215,0,
1.5467,41.4,-21.3,135.0,103.5,97.4,-18.9,-23.0,22.7,-892.5,-36.2,294.4,295.9,-32.0,-64.2,-30.2,-77.0,-9.3,-3558.0,208.9,78.6,-2399.1,-46.8,-53.1,-72.6,0,0,2790,0,216,0,
1.5500,52.2,4.8,164.3,138.9,124.1,10.2,6.6,86.6,-1115.6,16.4,325.8,323.1,-9.6,-44.1,-2.1,-51.8,-9.9,-3501.3,246.6,119.5,-2345.7,-8.1,-27.9,-34.7,0,0,2796,0,217,0,
1.5533,16.8,-56.6,110.4,66.0,74.0,-34.5,-52.9,-24.8,-743.8,-39.5,273.5,268.8,-70.1,-83.1,-53.5,-100.6,-9.6,-3567.9,188.5,43.9,-2417.7,-65.9,-76.5,-87.3,0,0,2802,0,218,0,
1.5567,80.4,32.6,178.1,147.3,133.6,32.7,21.2,80.0,-1115.6,27.5,330.9,320.4,9.9,-27.3,10.2,-38.6,-9.9,-3494.4,262.5,115.0,-2341.5,-2.4,-13.5,-15.8,0,0,2808,0,219,0,
1.5600,-5.1,-20.4,123.6,88.5,77.3,-48.5,-43.7,26.3,-1041.3,-35.0,275.9,265.2,-49.4,-72.3,-38.9,-85.7,-9.6,-3529.8,203.8,59.5,-2375.1,-50.9,-66.0,-75.6,0,0,2814,0,220,0,
1.5633,39.3,-20.1,135.0,97.2,102.8,-8.7,-21.5,5.1,-818.1,-8.1,288.2,284.9,-37.7,-56.7,-16.4,-65.3,-9.6,-3526.8,211.0,76.2,-2373.6,-25.2,-41.1,-46.0,0,0,2820,0,221,0,
1.5667,54.3,-12.9,148.1,127.8,112.7,6.0,-1.2,72.9,-1190.0,0.9,289.1,288.8,-12.3,-42.6,1.2,-50.3,-9.6,-3503.7,224.5,101.0,-2352.0,-15.0,-28.8,-30.5,0,0,2826,0,222,0,
1.5700,-1.8,-54.8,102.6,66.9,73.1,-42.5,-48.5,5.1,-966.9,-38.3,246.7,246.4,-55.1,-75.9,-33.8,-83.6,-9.6,-3562.5,173.2,45.7,-2406.3,-54.2,-64.5,-72.6,0,0,2832,0,223,0,
1.5733,63.6,-15.9,136.8,105.6,112.7,7.2,-1.2,31.1,-818.1,0.9,278.3,277.7,-25.2,-41.7,-2.4,-43.1,-9.9,-3515.1,208.9,80.4,-2364.6,-13.5,-25.2,-34.1,0,0,2838,0,224,0,
1.5767,-6.3,-23.6,110.7,85.8,76.7,-19.2,-30.5,52.3,-1190.0,-38.0,239.8,234.7,-40.1,-73.2,-35.6,-80.6,-9.6,-3553.2,186.7,53.8,-2398.2,-58.7,-67.8,-75.6,0,0,2844,0,225,0,
1.5800,21.0,-31.4,119.1,81.3,91.1,-21.0,-23.0,10.5,-892.5,-10.5,257.1,254.4,-29.6,-52.2,-17.6,-58.7,-9.9,-3525.9,191.5,52.3,-2375.4,-29.7,-44.1,-52.6,0,0,2850,0,226,0,
1.5833,36.9,-35.9,102.9,81.0,80.6,-22.5,-21.5,27.8,-966.9,-20.9,233.2,232.6,-43.1,-67.5,-23.9,-72.2,-9.3,-3542.7,175.0,51.4,-2391.3,-39.9,-50.7,-60.1,0,0,2856,0,227,0,
1.5867,17.7,-20.4,114.0,94.2,92.3,-6.9,-9.9,66.6,-1115.6,-11.4,238.3,243.1,-31.7,-51.6,-15.5,-61.1,-9.6,-3528.0,179.5,67.5,-2366.1,-24.9,-45.0,-50.8,0,0,2862,0,228,0,
1.5900,15.9,-49.4,89.2,53.4,72.8,-31.2,-36.5,-8.4,-818.1,-37.7,217.4,218.0,-50.3,-66.6,-40.3,-83.3,-9.6,-3555.3,154.9,32.3,-2401.2,-49.1,-67.2,-62.5,0,0,2868,0,229,0,
1.5933,18.0,-18.3,109.5,93.0,92.0,0.9,-0.9,60.9,-1338.8,-13.8,227.6,229.6,-38.0,-66.6,-19.1,-64.7,-9.6,-3528.9,171.1,65.1,-2375.4,-30.9,-43.2,-45.4,0,0,2874,0,230,0,
1.5967,-0.9,-11.4,109.8,83.4,92.3,-7.5,-9.9,48.7,-1041.3,-14.4,232.3,231.4,-45.8,-59.1,-22.4,-65.3,-9.3,-3520.2,171.1,53.2,-2366.7,-28.2,-42.9,-45.7,0,0,2880,0,231,0,
1.6000,17.7,-55.1,83.2,49.5,68.9,-29.7,-34.1,-16.4,-818.1,-29.0,207.8,205.8,-70.7,-82.5,-44.8,-91.1,-9.6,-3554.4,146.5,19.1,-2397.3,-43.2,-64.8,-64.3,0,0,2886,0,232,0,
1.6033,53.1,21.3,146.9,126.3,122.3,28.5,25.1,97.7,-1190.0,17.9,255.3,253.8,8.7,-24.9,10.8,-41.3,-10.2,-3478.2,209.2,86.7,-2327.1,3.0,-14.1,-21.8,0,0,2892,0,233,0,
1.6067,-19.5,-62.6,76.6,44.1,59.3,-42.8,-50.2,-7.5,-966.9,-35.9,193.5,196.8,-50.6,-83.1,-54.1,-100.6,-9.6,-3557.4,139.0,15.8,-2402.4,-52.1,-78.0,-79.8,0,0,2898,0,234,0,
1.6100,51.9,8.1,129.0,100.2,112.1,16.5,6.6,44.2,-1115.6,17.9,241.9,239.2,3.6,-33.0,-1.8,-45.8,-9.3,-3500.4,191.5,62.2,-2345.1,-5.7,-25.8,-30.2,0,0,2904,0,235,0,
1.6133,-0.6,-10.2,110.7,87.6,87.2,-9.6,-15.6,69.3,-1190.0,-4.5,213.5,215.0,-32.9,-54.3,-23.3,-71.3,-9.3,-3505.2,171.7,53.2,-2351.7,-23.1,-51.6,-53.8,0,0,2910,0,236,0,
1.6167,13.5,-39.8,86.2,50.4,74.0,-32.7,-39.8,-4.2,-892.5,-8.4,200.1,198.3,-50.6,-66.6,-39.7,-86.6,-9.6,-3536.4,149.8,22.4,-2380.2,-41.7,-66.0,-65.5,0,0,2916,0,237,0,
1.6200,57.0,8.4,121.5,101.1,106.7,16.5,9.0,63.6,-1041.3,12.0,227.6,225.5,-1.5,-32.1,4.5,-49.7,-9.6,-3496.2,188.5,60.7,-2343.3,-4.5,-30.6,-37.7,0,0,2922,0,238,0,
1.6233,-15.9,-35.0,82.9,58.2,63.8,-30.3,-38.3,38.5,-1041.3,-21.5,186.0,181.9,-38.3,-66.6,-38.6,-91.7,-9.6,-3535.8,143.2,20.0,-2379.0,-44.4,-69.9,-76.2,0,0,2928,0,239,0,
1.6267,32.7,-15.0,105.3,68.1,90.2,-17.4,-10.5,17.0,-966.9,-2.7,212.9,213.5,-27.3,-39.3,-9.0,-58.1,-9.9,-3519.6,161.2,33.2,-2368.5,-9.6,-37.5,-51.4,0,0,2934,0,240,0,
1.6300,2.1,-15.3,89.8,67.2,64.1,-21.0,-20.0,50.8,-1190.0,-20.6,186.9,181.3,-37.1,-66.0,-26.0,-77.6,-9.9,-3540.6,149.2,22.7,-2382.6,-50.9,-55.2,-68.4,0,0,2940,0,241,0,
1.6333,7.5,-38.6,90.7,60.3,73.4,-8.7,-20.3,34.3,-892.5,-12.3,196.8,194.4,-40.4,-54.9,-17.0,-62.6,-9.6,-3516.6,151.9,28.7,-2363.1,-21.3,-48.0,-57.7,0,0,2946,0,242,0,
1.6367,15.3,-41.9,70.0,33.9,44.9,-56.3,-36.2,-15.2,-1041.3,-13.8,174.4,169.0,-56.6,-67.8,-30.5,-74.9,-9.6,-3539.7,131.6,-5.7,-2386.5,-36.6,-59.4,-71.1,0,0,2952,0,243,0,
1.6400,6.6,-14.1,91.9,71.1,70.4,-16.5,-4.2,66.3,-1338.8,5.1,192.3,186.0,-28.4,-49.2,-5.1,-52.1,-9.6,-3509.7,158.8,33.2,-2358.0,-16.5,-37.8,-55.3,0,0,2958,0,244,0,
1.6433,-14.4,-49.1,74.8,36.6,56.3,-42.5,-33.2,0.0,-966.9,-0.9,179.8,172.0,-42.5,-64.5,-25.7,-66.2,-9.9,-3537.6,138.4,2.1,-2383.8,-22.5,-51.0,-61.6,0,0,2964,0,245,0,
1.6467,8.1,-26.0,82.6,51.3,59.6,-24.3,-19.7,15.2,-1264.4,-5.7,177.4,171.4,-44.9,-62.1,-25.7,-66.8,-9.9,-3515.1,148.3,11.7,-2361.9,-28.8,-50.1,-56.2,0,0,2970,0,246,0,
1.6500,19.8,-0.3,110.1,78.6,79.1,-0.9,5.4,74.7,-1115.6,26.6,198.6,191.1,-13.5,-40.2,-3.9,-47.9,-9.6,-3470.7,173.8,37.4,-2318.7,-2.1,-27.6,-38.0,0,0,2976,0,247,0,
1.6533,-15.6,-65.6,55.7,8.4,31.8,-53.3,-54.1,-33.2,-966.9,-26.0,152.3,144.5,-61.4,-81.6,-54.7,-97.6,-9.6,-3525.3,116.3,-26.3,-2371.2,-47.6,-77.7,-94.8,0,0,2982,0,248,0,
1.6567,46.5,10.8,115.5,87.3,89.0,4.2,17.9,65.7,-1190.0,30.2,204.9,196.2,-2.7,-23.4,10.8,-35.6,-9.6,-3466.5,174.4,41.5,-2310.3,3.6,-6.9,-27.8,0,0,2988,0,249,0,
1.6600,-34.8,-42.2,71.2,36.3,47.3,-45.8,-40.7,22.1,-1190.0,-17.3,163.9,154.7,-48.8,-66.9,-36.5,-86.0,-9.6,-3511.5,130.4,-2.7,-2359.2,-45.0,-66.0,-55.0,0,0,2994,0,250,0,
1.6633,12.3,-29.9,82.3,41.4,63.8,-27.9,-24.2,-5.7,-892.5,10.2,175.9,170.2,-32.6,-50.7,-17.3,-64.7,-9.6,-3520.8,137.8,4.5,-2364.0,-11.7,-43.2,-45.4,0,0,3000,0,251,0,
1.6667,32.4,2.1,102.0,76.8,77.3,2.4,-1.8,71.1,-1115.6,10.8,182.8,177.7,-5.4,-36.6,-0.6,-54.2,-9.9,-3498.9,160.6,35.3,-2342.4,-16.8,-31.5,-43.6,0,0,3006,0,252,0,
1.6700,-23.4,-56.9,56.0,18.6,36.6,-44.9,-50.2,-1.8,-892.5,-25.7,149.0,141.0,-52.1,-69.6,-35.0,-91.1,-9.6,-3535.5,111.2,-16.4,-2375.1,-45.3,-69.0,-69.6,0,0,3012,0,253,0,
1.6733,46.5,0.3,102.9,69.0,85.7,-9.0,-3.9,29.3,-1190.0,19.4,190.5,185.1,-6.6,-26.1,8.4,-47.9,-9.6,-3482.4,159.1,30.5,-2326.8,-4.5,-28.8,-39.5,0,0,3018,0,254,0,
1.6767,-28.5,-33.2,69.4,47.4,49.1,-29.1,-26.6,49.6,-1338.8,-13.8,152.6,148.4,-39.5,-66.9,-37.7,-85.1,-9.6,-3513.9,129.2,3.6,-2346.9,-36.0,-57.9,-64.6,0,0,3024,0,255,0,
1.6800,-0.6,-24.2,81.7,45.0,69.2,-20.4,-20.0,9.9,-966.9,4.5,171.4,167.5,-45.2,-52.2,-22.1,-68.3,-9.9,-3485.1,135.2,13.1,-2329.5,-16.8,-40.8,-50.2,0,0,3030,0,0,0,
1.6833,17.4,-23.9,67.3,40.8,53.3,-24.0,-22.1,20.3,-966.9,-12.3,150.8,145.4,-40.1,-65.7,-32.3,-78.5,-9.6,-3517.5,121.1,-2.1,-2355.9,-36.6,-54.6,-64.6,0,0,3036,0,1,0,
1.6867,-5.1,-32.3,82.0,61.8,68.9,-14.7,-11.4,59.1,-1190.0,7.2,164.5,162.2,-21.6,-51.6,-16.4,-62.3,-9.6,-3487.5,139.3,18.8,-2325.9,-17.1,-40.2,-52.9,0,0,3042,0,2,0,
1.6900,1.8,-18.9,64.3,25.5,47.6,-39.2,-39.8,-11.4,-892.5,-24.8,146.9,141.5,-42.5,-65.4,-41.8,-88.1,-9.6,-3524.7,116.9,-18.8,-2359.2,-41.1,-66.0,-79.8,0,0,3048,0,3,0,
1.6933,7.2,9.9,88.3,68.4,69.5,0.3,-5.4,58.2,-1413.1,-1.2,161.6,152.0,-20.1,-48.9,-18.8,-68.0,-9.6,-3512.4,145.6,9.9,-2344.5,-25.2,-43.2,-53.2,0,0,3054,0,4,0,
1.6967,-16.8,-44.6,82.6,56.1,73.1,-12.6,-16.7,46.9,-1115.6,13.5,167.5,163.1,-16.2,-44.1,-16.1,-62.3,-9.6,-3497.7,136.1,15.5,-2331.9,-12.6,-44.1,-45.1,0,0,3060,0,5,0,
1.7000,8.1,-42.5,59.3,26.7,48.5,-42.2,-42.5,-14.0,-966.9,-5.1,141.0,137.4,-44.9,-64.5,-34.7,-84.5,-9.6,-3534.9,107.3,-18.2,-2355.9,-35.1,-62.4,-69.3,0,0,3066,0,6,0,
1.7033,39.3,16.5,115.2,98.1,102.8,43.1,19.1,97.7,-1190.0,32.3,189.3,182.8,12.3,-12.0,18.2,-34.4,-9.6,-3492.6,165.4,41.5,-2306.7,6.9,-15.9,-29.0,0,0,3072,0,7,0,
1.7067,-30.9,-55.4,57.2,20.1,39.9,-57.8,-57.1,-5.4,-892.5,-19.7,138.9,132.3,-53.9,-71.4,-43.3,-94.9,-9.3,-3552.0,105.8,-26.9,-2361.6,-43.8,-73.8,-83.4,0,0,3078,0,8,0,
1.7100,37.8,12.3,104.4,77.1,90.2,7.5,1.2,44.5,-1115.6,24.5,179.2,175.9,-2.1,-20.4,8.7,-46.4,-9.6,-3495.3,149.2,19.7,-2307.9,-2.4,-27.3,-36.8,0,0,3084,0,9,0,
1.7133,-12.6,-14.7,83.5,69.6,73.7,-6.9,-14.4,69.0,-1264.4,1.5,157.4,157.1,-29.0,-44.4,-16.7,-70.4,-9.6,-3490.8,134.0,20.3,-2300.7,-24.9,-45.0,-57.7,0,0,3090,0,10,0,
1.7167,-3.9,-51.2,62.2,31.2,56.0,-25.5,-36.8,-1.5,-818.1,-6.3,144.5,141.0,-53.6,-64.5,-38.0,-83.0,-9.6,-3527.7,110.9,-26.3,-2337.0,-38.4,-57.0,-64.6,0,0,3096,0,11,0,
1.7200,43.5,3.3,99.7,81.9,90.8,12.9,13.2,65.1,-1190.0,25.1,173.2,173.8,-8.7,-23.7,5.4,-45.5,-9.9,-3491.7,146.2,25.7,-2298.3,-5.1,-21.0,-35.6,0,0,3102,0,12,0,
1.7233,-36.3,-44.3,55.1,35.1,44.1,-35.1,-35.9,38.5,-1115.6,-22.7,129.6,123.0,-54.8,-65.7,-45.7,-94.3,-9.9,-3538.5,105.2,-21.5,-2346.0,-46.2,-66.0,-64.3,0,0,3108,0,13,0,
1.7267,15.0,-19.2,77.8,47.4,73.7,-15.0,-10.8,13.1,-892.5,1.8,155.0,155.3,-29.9,-43.8,-12.9,-61.1,-9.0,-3543.6,122.6,-1.8,-2350.2,-15.6,-36.9,-53.2,0,0,3114,0,14,0,
1.7300,-18.0,-28.1,59.3,48.3,50.3,-22.5,-17.6,53.8,-1264.4,-11.7,128.1,128.7,-55.1,-63.3,-28.1,-74.6,-9.9,-3544.2,108.2,-9.3,-2349.0,-41.7,-48.9,-60.7,0,0,3120,0,15,0,
1.7333,-6.3,-36.8,71.8,45.6,60.5,-24.6,-16.7,40.0,-1041.3,4.5,152.3,149.3,-35.6,-48.9,-20.3,-64.4,-9.6,-3515.7,125.0,-1.5,-2319.3,-21.0,-39.0,-57.7,0,0,3126,0,16,0,
1.7367,6.0,-43.1,53.9,25.5,46.4,-31.8,-29.3,-0.9,-1041.3,-16.7,132.6,127.8,-42.2,-60.3,-29.6,-74.3,-9.9,-3546.9,105.8,-23.6,-2355.3,-37.8,-54.6,-67.3,0,0,3132,0,17,0,
1.7400,-5.4,-14.1,79.3,57.3,59.6,2.7,1.2,74.4,-1338.8,6.9,147.5,138.9,-14.4,-49.5,-11.4,-56.0,-9.3,-3516.9,134.6,2.4,-2328.6,-23.7,-31.5,-73.8,0,0,3138,0,18,0,
1.7433,-25.2,-46.7,59.8,21.3,44.6,-40.1,-32.0,5.1,-966.9,-0.3,136.8,130.8,-35.3,-58.5,-26.3,-69.8,-9.9,-3518.4,112.7,-21.8,-2331.3,-27.3,-48.0,-49.6,0,0,3144,0,19,0,
1.7467,-2.1,-25.4,67.6,34.5,45.8,-24.6,-22.1,15.5,-1190.0,-14.4,137.4,130.8,-36.8,-52.8,-19.7,-67.4,-9.6,-3532.8,122.3,-14.3,-2352.0,-21.6,-50.4,-67.3,0,0,3150,0,20,0,
1.7500,9.3,3.6,94.3,71.4,74.3,2.1,6.3,79.5,-1041.3,34.1,163.9,157.7,-8.1,-29.4,5.4,-41.6,-9.6,-3472.2,150.1,25.7,-2293.5,1.5,-20.7,-40.4,0,0,3156,0,21,0,
1.7533,-28.5,-64.4,38.9,-2.1,22.2,-56.3,-59.8,-35.8,-1041.3,-26.3,115.0,108.4,-67.1,-78.0,-49.6,-95.5,-9.9,-3547.2,92.9,-44.5,-2373.3,-50.0,-73.5,-87.0,0,0,3162,0,22,0,
1.7567,38.7,20.7,110.1,86.1,84.5,16.2,15.0,72.6,-1041.3,41.9,177.1,169.6,9.6,-18.3,15.5,-35.0,-9.9,-3480.3,162.4,37.4,-2307.9,7.8,-12.6,-23.9,0,0,3168,0,23,0,
1.7600,-44.4,-41.3,54.2,24.0,29.1,-45.8,-45.2,25.1,-1338.8,-15.8,125.7,114.7,-49.4,-66.6,-37.1,-86.0,-9.6,-3520.8,111.2,-27.2,-2356.2,-34.8,-65.7,-78.3,0,0,3174,0,24,0,
1.7633,2.1,-27.5,69.7,29.1,44.9,-35.1,-30.5,-3.3,-818.1,15.5,142.7,132.0,-28.4,-50.4,-19.4,-67.7,-9.6,-3526.5,120.5,-20.9,-2365.2,-31.8,-41.7,-55.9,0,0,3180,0,25,0,
1.7667,28.2,21.3,93.4,71.1,62.3,-9.9,-4.2,78.3,-1264.4,15.2,155.9,147.8,-3.3,-29.7,1.8,-51.8,-10.2,-3484.5,145.9,12.8,-2326.5,-1.5,-31.2,-42.1,0,0,3186,0,26,0,
1.7700,-31.8,-49.1,45.8,12.6,22.8,-52.1,-53.2,5.4,-966.9,-21.8,119.5,108.7,-47.6,-66.3,-36.2,-92.0,-9.6,-3538.5,98.3,-38.8,-2378.4,-34.8,-72.0,-83.7,0,0,3192,0,27,0,
1.7733,38.7,-2.4,92.5,58.2,68.0,-5.1,-2.1,35.8,-1041.3,24.5,160.7,150.8,0.6,-22.8,4.5,-47.0,-9.6,-3503.1,141.4,4.2,-2336.7,-1.5,-22.5,-28.4,0,0,3198,0,28,0,
1.7767,-30.6,-23.6,65.5,48.0,42.3,-16.8,-24.8,60.0,-1338.8,-3.0,131.1,122.7,-31.4,-59.7,-35.6,-78.8,-9.9,-3530.4,118.7,-5.4,-2366.1,-23.7,-52.5,-68.1,0,0,3204,0,29,0,
1.7800,-4.5,-37.1,73.6,39.3,61.7,-9.6,-18.2,18.5,-818.1,20.9,149.9,139.8,-23.1,-38.7,-17.3,-62.9,-9.9,-3500.7,128.6,-8.7,-2339.1,-6.6,-35.7,-39.2,0,0,3210,0,30,0,
1.7833,12.9,-26.3,66.7,48.9,53.0,-21.3,-14.4,33.2,-1115.6,5.7,135.0,129.0,-28.7,-52.2,-21.2,-68.3,-9.6,-3528.3,123.8,-6.3,-2367.6,-24.9,-41.4,-48.1,0,0,3216,0,31,0,
1.7867,-12.0,-17.7,77.2,56.4,65.0,-6.3,-6.6,65.4,-1190.0,12.3,148.1,141.3,-21.3,-42.6,-12.3,-56.9,-9.9,-3510.3,135.8,7.8,-2342.1,-2.1,-31.8,-42.4,0,0,3222,0,32,0,
1.7900,-11.7,-50.9,55.7,21.6,48.5,-30.0,-30.8,-13.4,-892.5,5.1,135.6,125.4,-46.1,-60.3,-30.8,-71.3,-9.9,-3519.0,111.2,-23.3,-2357.1,-22.2,-45.0,-56.8,0,0,3228,0,33,0,
1.7933,-4.5,-7.8,76.0,58.5,62.0,0.0,-0.3,51.1,-1413.1,17.9,142.7,133.2,-21.3,-41.4,-8.7,-55.4,-9.3,-3499.5,133.4,2.7,-2345.7,-11.7,-27.6,-42.1,0,0,3234,0,34,0,
1.7967,-24.0,-20.7,73.6,47.4,58.4,-14.1,-15.0,35.8,-1115.6,17.3,147.2,140.1,-26.7,-37.8,-8.7,-54.5,-9.9,-3514.8,131.0,6.0,-2349.9,-3.0,-33.3,-46.3,0,0,3240,0,35,0,
1.8000,-4.8,-25.7,39.2,4.2,24.9,-45.2,-42.5,-28.7,-892.5,-24.8,110.5,102.4,-65.0,-61.2,-35.9,-80.9,-9.9,-3545.4,90.2,-44.2,-2386.2,-34.2,-56.4,-70.5,0,0,3246,0,36,0,
1.8033,22.2,0.3,99.9,81.0,78.5,17.1,19.1,83.6,-1264.4,37.4,164.8,155.3,9.6,-12.3,21.8,-24.6,-9.6,-3481.8,159.7,32.6,-2327.4,18.9,-3.3,-19.4,0,0,3252,0,37,0,
1.8067,-56.1,-91.3,22.4,-9.3,10.8,-63.5,-60.1,-25.4,-892.5,-19.4,103.9,91.4,-74.9,-84.6,-49.9,-93.1,-9.6,-3551.4,82.1,-56.2,-2388.9,-43.5,-69.6,-84.6,0,0,3258,0,38,0,
1.8100,17.4,-12.6,83.2,56.1,63.5,0.6,-1.2,28.7,-1115.6,25.7,150.2,140.4,-21.0,-30.6,2.4,-41.3,-9.6,-3510.0,134.9,-1.5,-2356.5,1.5,-19.5,-37.7,0,0,3264,0,39,0,
1.8133,-34.5,-32.3,56.9,41.4,42.3,-28.8,-21.2,55.9,-1413.1,-8.7,123.6,117.1,-38.0,-55.5,-22.7,-63.5,-9.6,-3523.5,111.2,-12.0,-2359.5,-20.7,-42.6,-62.5,0,0,3270,0,40,0,
1.8167,-15.6,-62.0,41.0,6.9,27.6,-50.0,-45.5,-16.7,-1041.3,-15.2,115.6,105.4,-52.4,-69.9,-39.1,-76.7,-9.6,-3528.0,92.9,-43.0,-2377.8,-30.9,-59.1,-74.7,0,0,3276,0,41,0,
1.8200,26.1,-7.5,80.5,61.5,67.1,4.5,10.2,57.0,-1264.4,19.1,146.9,139.8,-11.7,-33.3,4.5,-38.6,-9.6,-3490.8,134.3,7.5,-2336.4,-1.5,-14.4,-24.2,0,0,3282,0,42,0,
1.8233,-50.4,-60.8,38.3,15.3,21.9,-46.1,-42.8,28.1,-1264.4,-27.2,102.4,92.3,-66.2,-78.3,-43.3,-83.9,-9.3,-3525.0,89.0,-37.4,-2371.8,-42.6,-66.9,-85.2,0,0,3288,0,43,0,
1.8267,-0.3,-31.7,64.3,28.8,50.3,-21.6,-13.2,6.9,-966.9,-3.3,130.5,124.8,-36.8,-47.7,-14.0,-53.9,-9.3,-3540.9,112.7,-25.1,-2384.7,-14.7,-34.8,-58.0,0,0,3294,0,44,0,
1.8300,-26.7,-36.8,50.6,34.5,33.0,-23.4,-14.7,46.9,-1413.1,-15.2,114.1,105.4,-45.5,-61.8,-24.5,-67.7,-9.9,-3523.8,99.8,-22.7,-2366.4,-35.7,-50.1,-72.9,0,0,3300,0,45,0,
1.8333,-19.5,-47.3,57.8,30.6,43.8,-23.7,-14.4,33.5,-1115.6,6.9,129.3,122.4,-41.3,-56.1,-18.2,-60.2,-9.6,-3513.9,111.8,-16.1,-2359.8,-16.5,-39.3,-63.7,0,0,3306,0,46,0,
1.8367,-6.0,-56.9,44.6,14.7,29.7,-30.9,-25.1,-8.1,-966.9,-20.6,112.3,106.0,-57.5,-64.2,-29.3,-72.5,-10.2,-3528.3,91.1,-41.2,-2372.7,-35.4,-51.6,-71.7,0,0,3312,0,47,0,
1.8400,-12.6,-16.5,82.0,58.8,55.4,-18.0,-1.8,69.9,-1413.1,9.9,145.4,135.0,-26.4,-42.0,-3.6,-50.6,-9.6,-3483.9,138.4,6.9,-2330.1,-12.3,-34.2,-43.6,0,0,3318,0,48,0,
1.8433,-29.7,-50.6,55.1,18.0,39.0,-29.4,-23.9,4.5,-1041.3,6.9,130.2,116.8,-46.4,-51.6,-22.1,-64.4,-9.9,-3523.2,106.7,-26.3,-2368.5,-27.0,-39.6,-77.7,0,0,3324,0,49,0,
1.8467,-14.4,-37.4,56.0,24.6,33.6,-33.9,-25.1,9.9,-1190.0,-1.5,121.8,112.9,-47.3,-53.7,-14.9,-62.9,-9.3,-3537.0,105.8,-29.6,-2385.9,-25.8,-47.4,-58.0,0,0,3330,0,50,0,
1.8500,2.4,-8.1,88.6,62.7,64.1,-0.6,1.2,72.9,-1190.0,35.3,154.1,144.8,-7.5,-24.9,13.4,-36.8,-9.6,-3486.0,139.9,13.4,-2331.0,9.0,-18.9,-35.6,0,0,3336,0,51,0,
1.8533,-35.7,-71.8,33.2,-10.5,12.0,-58.7,-59.5,-38.8,-892.5,-14.1,105.7,95.6,-68.9,-75.9,-41.5,-85.1,-9.3,-3531.9,86.3,-55.9,-2381.7,-40.8,-64.8,-84.0,0,0,3342,0,52,0,
1.8567,31.5,26.6,102.9,71.4,72.5,4.5,13.5,66.6,-1338.8,44.8,165.1,153.5,12.6,-12.3,26.0,-21.6,-9.6,-3480.3,154.0,18.2,-2324.4,21.3,-3.9,-24.8,0,0,3348,0,53,0,
1.8600,-54.0,-63.2,46.7,15.3,22.8,-38.9,-44.3,20.6,-1115.6,-9.3,114.7,106.3,-53.0,-62.4,-26.0,-71.6,-9.6,-3524.4,103.7,-32.6,-2361.3,-24.9,-54.6,-69.3,0,0,3354,0,54,0,
1.8633,-6.0,-35.6,58.7,16.8,37.2,-28.8,-29.9,-8.1,-1041.3,14.4,131.4,117.1,-37.1,-48.0,-12.0,-59.0,-9.6,-3521.1,113.6,-32.9,-2362.8,-16.5,-41.4,-58.0,0,0,3360,0,55,0,
1.8667,15.9,-2.7,77.5,51.9,48.2,-31.2,-8.7,65.7,-1264.4,20.3,142.1,128.1,-4.2,-31.5,4.8,-47.0,-10.2,-3487.8,136.1,-1.5,-2328.6,-0.6,-33.0,-45.1,0,0,3366,0,56,0,
1.8700,-46.5,-68.6,29.0,-12.0,7.2,-68.3,-57.7,-9.3,-1041.3,-23.3,99.1,86.0,-55.4,-74.1,-41.8,-87.8,-9.9,-3543.0,84.5,-58.0,-2385.0,-46.8,-72.3,-89.7,0,0,3372,0,57,0,
1.8733,24.6,-14.4,70.0,33.6,48.2,-23.1,-11.4,19.7,-1041.3,17.3,137.4,123.9,-13.2,-34.5,2.7,-44.3,-9.9,-3512.4,128.6,-21.2,-2355.6,-5.7,-32.4,-49.6,0,0,3378,0,58,0,
1.8767,-46.8,-48.5,37.1,15.6,13.5,-49.4,-37.1,37.3,-1338.8,-16.4,100.9,88.7,-53.3,-71.1,-24.5,-80.3,-9.6,-3540.9,94.7,-39.7,-2387.4,-45.3,-66.3,-89.7,0,0,3384,0,59,0,
1.8800,-21.9,-53.9,50.3,12.0,36.9,-33.9,-29.0,-0.9,-892.5,-3.3,126.3,112.9,-45.8,-51.6,-18.2,-60.5,-9.6,-3528.9,102.8,-37.1,-2368.5,-25.2,-43.5,-63.7,0,0,3390,0,60,0,
1.8833,-0.6,-37.7,45.5,19.2,30.6,-29.4,-25.1,13.1,-1041.3,-5.7,105.1,99.4,-53.9,-69.9,-30.5,-73.1,-9.9,-3537.9,92.3,-33.8,-2382.0,-40.8,-54.6,-70.5,0,0,3396,0,61,0,
1.8867,-19.5,-29.3,62.5,38.4,42.9,-19.5,-10.8,56.5,-1190.0,4.5,124.2,115.6,-38.3,-49.8,-12.3,-58.4,-9.6,-3508.8,110.9,-13.4,-2342.1,-11.1,-39.6,-58.0,0,0,3402,0,62,0,
1.8900,-17.4,-62.0,40.1,4.8,31.2,-39.2,-36.2,-17.6,-966.9,-9.6,112.0,102.4,-65.9,-66.0,-29.9,-72.8,-9.6,-3550.2,87.8,-41.5,-2392.8,-32.1,-56.1,-67.3,0,0,3408,0,63,0,
1.8933,-10.2,-21.9,66.4,44.4,48.8,-13.8,-6.3,50.5,-1338.8,-9.9,124.8,117.7,-34.7,-48.0,-11.4,-59.3,-9.9,-3531.0,113.0,-9.9,-2369.7,-25.8,-43.8,-53.5,0,0,3414,0,64,0,
1.8967,-30.6,-38.0,65.8,40.5,57.2,-20.1,-15.0,38.8,-1115.6,14.6,133.2,127.5,-32.9,-40.5,-11.1,-57.2,-9.6,-3520.8,115.4,1.2,-2359.2,-11.7,-38.1,-45.7,0,0,3420,0,65,0,
1.9000,-11.1,-62.3,44.0,11.7,33.0,-44.3,-40.4,-27.8,-1041.3,-16.1,116.8,105.1,-55.7,-68.7,-33.8,-79.7,-9.6,-3547.8,91.4,-40.0,-2394.9,-34.5,-59.4,-71.4,0,0,3426,0,66,0,
1.9033,24.6,12.6,108.9,92.7,89.3,30.6,25.7,87.8,-1190.0,42.5,170.8,163.3,10.8,-12.3,23.6,-24.9,-9.3,-3471.3,157.9,38.2,-2308.8,25.2,-2.1,-3.9,0,0,3432,0,67,0,
1.9067,-44.4,-65.6,46.4,12.3,27.9,-46.4,-50.0,-18.5,-1041.3,-7.2,119.7,109.3,-59.6,-71.4,-37.7,-83.3,-9.9,-3518.1,92.6,-35.3,-2347.5,-27.3,-60.3,-71.1,0,0,3438,0,68,0,
1.9100,21.6,-0.6,99.7,64.8,74.0,-6.0,-1.8,26.0,-1190.0,31.4,164.5,152.0,-9.6,-23.7,14.6,-36.2,-9.6,-3478.2,147.7,12.8,-2279.7,12.6,-17.1,-33.2,0,0,3444,0,69,0,
1.9133,-29.7,-23.1,76.3,54.3,54.2,-10.2,-15.0,52.9,-1190.0,26.6,138.9,128.1,-35.3,-48.6,-4.8,-54.8,-9.6,-3477.3,125.0,2.4,-2245.8,-1.2,-34.5,-46.9,0,0,3450,0,70,0,
1.9167,-16.5,-58.1,48.2,10.2,31.2,-51.5,-44.6,-26.0,-892.5,-2.7,118.9,110.2,-54.8,-50.7,-26.6,-74.6,-9.9,-3527.7,94.4,-35.0,-2241.6,-23.7,-53.7,-69.6,0,0,3456,0,71,0,
1.9200,31.5,-1.2,87.1,63.6,64.1,1.2,6.9,50.5,-1190.0,38.6,149.6,138.9,-15.6,-23.1,12.6,-37.7,-9.6,-3482.1,133.1,-0.3,-2170.2,-1.5,-18.6,-35.0,0,0,3462,0,72,0,
1.9233,-52.5,-53.6,30.8,6.6,8.4,-60.2,-49.7,17.0,-1264.4,-28.7,92.9,73.8,-54.8,-74.4,-37.4,-89.6,-9.6,-3512.4,76.4,-64.5,-2164.5,-62.6,-75.0,-97.1,0,0,3468,0,73,0,
1.9267,-5.1,-11.7,51.5,16.2,37.5,-37.4,-25.1,-6.6,-1115.6,-2.1,112.3,101.8,-44.9,-50.1,-12.6,-61.1,-9.6,-3501.3,87.5,-40.9,-2129.7,-34.8,-51.9,-84.6,0,0,3474,0,74,0,
1.9300,-37.5,-59.3,34.7,19.2,19.5,-36.0,-29.9,27.2,-1264.4,-21.5,94.4,91.1,-39.2,-68.4,-27.8,-81.2,-9.3,-3499.8,82.1,-35.6,-2151.9,-51.2,-65.7,-85.8,0,0,3480,0,75,0,
1.9333,-20.1,-63.5,48.2,22.5,37.8,-45.2,-30.8,17.3,-1041.3,0.0,123.0,120.0,-43.7,-57.0,-17.9,-65.9,-9.6,-3481.8,103.1,-19.7,-2174.4,-25.8,-55.2,-70.8,0,0,3486,0,76,0,
1.9367,-6.0,-60.5,32.0,2.4,20.1,-49.7,-39.2,-18.5,-1041.3,-20.0,100.0,92.9,-60.5,-66.9,-29.3,-80.9,-9.6,-3490.8,79.1,-54.4,-2211.6,-48.8,-69.3,-89.7,0,0,3492,0,77,0,
1.9400,-19.5,-23.6,58.4,42.6,39.0,-21.9,-13.2,57.6,-1190.0,-14.4,113.8,104.8,-38.3,-53.4,-16.1,-67.1,-9.6,-3480.9,107.6,-20.3,-2251.8,-36.6,-52.8,-74.4,0,0,3498,0,78,0,
1.9433,-39.0,-46.7,33.5,2.1,27.6,-26.4,-35.0,-6.6,-966.9,-21.8,98.5,98.5,-57.8,-66.3,-35.6,-78.5,-9.9,-3505.8,72.5,-42.1,-2334.0,-42.9,-60.9,-82.5,0,0,3504,0,79,0,
1.9467,-20.7,-46.4,42.2,16.8,28.8,-39.5,-29.3,1.8,-1115.6,-18.2,106.9,106.0,-45.8,-68.7,-30.8,-74.3,-9.3,-3498.9,86.3,-27.8,-2388.9,-28.5,-55.2,-71.7,0,0,3510,0,80,0,
1.9500,-2.1,-13.2,78.4,55.2,58.7,-11.1,3.0,70.8,-1190.0,15.5,141.5,136.8,-8.1,-36.0,-1.2,-41.6,-9.6,-3459.9,124.1,6.9,-2369.1,4.2,-18.6,-37.7,0,0,3516,0,81,0,
1.9533,-41.1,-80.8,24.8,-12.9,13.2,-57.2,-56.8,-43.3,-966.9,-25.4,100.3,94.7,-73.7,-85.8,-52.6,-92.3,-9.9,-3527.7,71.9,-53.8,-2430.3,-43.8,-66.9,-84.6,0,0,3522,0,82,0,
1.9567,24.9,5.7,93.7,71.1,74.3,15.0,14.7,60.3,-1338.8,38.6,158.0,152.3,-5.4,-23.7,18.2,-26.1,-9.3,-3461.4,136.9,20.6,-2361.3,17.4,-2.7,-17.6,0,0,3528,0,83,0,
1.9600,-56.4,-51.5,42.5,13.5,24.0,-47.9,-42.8,10.8,-1115.6,-5.7,108.4,106.0,-55.7,-66.9,-30.8,-75.5,-9.3,-3493.8,87.5,-25.4,-2379.3,-19.8,-47.1,-58.6,0,0,3534,0,84,0,
1.9633,-7.8,-36.5,62.8,20.1,44.9,-25.5,-29.9,-18.8,-1041.3,13.2,130.2,125.7,-32.0,-45.3,-10.8,-55.4,-9.6,-3464.4,106.1,-17.3,-2333.7,1.2,-26.4,-38.9,0,0,3540,0,85,0,
1.9667,16.5,1.5,84.1,62.4,63.2,1.8,-4.5,56.5,-1264.4,23.3,146.9,143.0,-2.4,-21.0,12.3,-35.9,-9.9,-3429.0,132.5,20.0,-2287.8,11.4,-9.0,-18.5,0,0,3546,0,86,0,
1.9700,-44.7,-68.0,34.1,-0.9,23.7,-53.3,-58.9,-23.3,-1115.6,2.1,109.3,104.8,-53.9,-58.2,-26.0,-73.1,-9.6,-3494.4,81.8,-29.6,-2340.3,-18.3,-49.8,-63.4,0,0,3552,0,87,0,
1.9733,29.1,-8.1,82.9,45.0,67.7,-3.3,-7.8,7.8,-966.9,36.5,151.4,146.6,-5.1,-3.0,22.4,-27.6,-9.6,-3462.0,131.9,10.2,-2305.2,17.4,-3.6,-9.3,0,0,3558,0,88,0,
1.9767,-42.6,-29.3,57.5,33.0,37.5,-24.3,-30.2,35.5,-1413.1,5.7,118.9,116.5,-33.8,-56.4,-19.1,-60.2,-9.3,-3476.7,105.5,0.9,-2312.7,-6.9,-35.7,-62.2,0,0,3564,0,89,0,
1.9800,-20.1,-31.4,61.3,20.7,47.6,-17.4,-22.7,-6.6,-1041.3,20.3,134.1,129.6,-28.4,-38.7,-6.6,-42.8,-9.6,-3476.4,113.9,-8.1,-2307.9,7.5,-20.4,-30.5,0,0,3570,0,90,0,
1.9833,1.8,-36.2,48.2,16.8,28.5,-36.9,-26.3,3.3,-1115.6,4.2,112.3,107.2,-39.5,-53.1,-15.8,-58.4,-9.9,-3494.7,100.1,-22.1,-2336.1,-14.1,-35.1,-48.4,0,0,3576,0,91,0,
1.9867,-26.1,-34.7,56.3,27.0,30.9,-28.2,-15.3,44.2,-1264.4,14.4,120.3,113.8,-31.1,-45.9,-9.3,-49.7,-9.6,-3482.1,110.6,-12.3,-2319.0,-4.5,-28.8,-48.7,0,0,3582,0,92,0,
1.9900,-22.8,-71.5,32.3,-5.1,25.2,-42.2,-35.6,-27.8,-966.9,-6.3,106.3,103.3,-61.7,-64.8,-28.4,-70.4,-9.9,-3514.5,83.9,-32.9,-2347.8,-16.8,-48.6,-67.9,0,0,3588,0,93,0,
1.9933,-20.1,-31.4,53.6,29.1,37.8,-14.1,-10.8,37.6,-1338.8,-8.1,113.2,107.8,-42.2,-53.7,-14.9,-60.5,-9.6,-3512.7,105.2,-11.1,-2344.2,-14.1,-36.6,-52.3,0,0,3594,0,94,0,
1.9967,-40.8,-47.0,52.4,24.3,39.6,-27.0,-17.3,30.2,-1041.3,6.9,116.8,115.3,-42.8,-53.1,-16.1,-61.1,-9.6,-3511.5,103.1,-11.4,-2342.1,-10.5,-37.2,-52.6,0,0,3600,0,95,0,
2.0000,-27.3,-75.4,26.6,-10.2,13.8,-52.4,-45.2,-35.2,-966.9,-23.9,92.3,87.2,-72.5,-81.9,-42.1,-86.9,-9.6,-3552.6,73.1,-47.8,-2386.8,-39.9,-66.0,-75.9,0,0,3606,0,96,0,
2.0033,4.2,-9.6,78.4,60.9,64.4,15.6,19.1,77.7,-1115.6,14.4,138.9,136.5,-3.9,-30.0,11.4,-34.7,-9.6,-3476.4,126.2,17.0,-2313.0,8.7,-12.9,-26.6,0,0,3612,0,97,0,
2.0067,-71.7,-93.1,12.9,-21.6,2.7,-62.6,-54.4,-27.2,-1115.6,-30.2,82.7,75.3,-77.9,-85.5,-53.5,-94.3,-10.2,-3558.0,62.0,-58.3,-2387.7,-50.0,-74.1,-87.0,0,0,3618,0,98,0,
2.0100,-6.9,-30.8,67.0,35.4,52.7,-10.2,-0.3,18.5,-1190.0,20.0,130.2,123.0,-31.7,-39.0,-6.3,-47.0,-9.3,-3508.8,116.9,-9.3,-2331.9,-5.7,-18.6,-32.3,0,0,3624,0,99,0,
2.0133,-54.3,-35.9,51.5,30.0,34.2,-24.9,-16.7,47.5,-1190.0,-11.1,109.9,103.3,-45.2,-54.9,-20.0,-64.1,-9.6,-3501.3,103.7,-17.0,-2329.2,-20.1,-38.4,-55.9,0,0,3630,0,100,0,
2.0167,-44.4,-74.5,28.7,-8.1,19.8,-44.9,-40.7,-30.8,-966.9,-12.9,96.2,92.9,-62.9,-70.5,-32.6,-74.9,-9.6,-3539.1,79.7,-46.3,-2367.6,-34.5,-52.2,-70.8,0,0,3636,0,101,0,
2.0200,6.3,-6.9,78.4,52.5,62.3,4.2,7.2,44.2,-1190.0,19.1,137.4,128.4,-9.0,-30.0,12.6,-35.6,-9.6,-3508.8,132.8,4.8,-2331.9,6.0,-15.6,-35.3,0,0,3642,0,102,0,
2.0233,-80.1,-62.0,26.6,3.3,12.6,-54.8,-44.9,7.5,-1190.0,-28.1,89.0,82.4,-56.3,-77.4,-37.7,-81.8,-9.9,-3546.9,80.3,-37.7,-2371.5,-37.5,-54.6,-75.0,0,0,3648,0,103,0,
2.0267,-24.9,-39.8,62.2,26.1,50.0,-34.2,-24.8,-11.9,-1115.6,24.2,129.3,125.7,-35.9,-38.7,-1.5,-47.3,-9.6,-3509.7,115.1,-7.2,-2333.4,0.6,-35.1,-37.4,0,0,3654,0,104,0,
2.0300,-56.7,-44.3,40.7,25.2,24.0,-16.2,-23.3,24.5,-1338.8,-14.6,96.5,90.5,-44.0,-63.3,-21.5,-66.2,-9.9,-3530.1,92.3,-34.7,-2350.5,-30.9,-44.4,-61.6,0,0,3660,0,105,0,
2.0333,-49.2,-45.8,47.3,18.6,32.7,-48.8,-30.2,14.0,-966.9,-0.3,113.8,109.3,-54.5,-50.7,-12.0,-58.7,-9.6,-3528.3,99.8,-30.2,-2348.4,-18.0,-42.6,-64.3,0,0,3666,0,106,0,
2.0367,-37.5,-47.9,33.5,2.1,17.7,-53.3,-37.1,-21.2,-1041.3,-18.8,93.2,87.8,-62.3,-66.3,-29.9,-74.9,-9.6,-3554.7,79.7,-49.6,-2376.6,-40.8,-53.1,-74.1,0,0,3672,0,107,0,
2.0400,-51.3,-39.5,53.0,40.5,38.7,-22.2,-10.8,56.2,-1413.1,-4.5,109.0,105.1,-33.8,-51.0,-9.9,-61.1,-9.6,-3506.1,104.6,-16.4,-2325.3,-16.2,-38.7,-61.3,0,0,3678,0,108,0,
2.0433,-73.8,-63.2,33.5,1.8,25.2,-42.8,-36.5,-5.1,-1041.3,-21.2,96.8,93.5,-59.3,-66.3,-27.2,-74.0,-9.9,-3534.6,80.9,-49.6,-2356.8,-34.5,-50.4,-73.8,0,0,3684,0,109,0,
2.0467,-51.6,-46.7,32.6,10.8,23.4,-32.1,-26.6,5.4,-1338.8,-29.3,89.0,86.9,-58.1,-60.9,-25.1,-74.9,-9.6,-3536.1,80.0,-47.5,-2362.8,-40.2,-54.0,-76.8,0,0,3690,0,110,0,
2.0500,-45.0,-23.1,61.9,41.4,49.4,-12.3,-2.1,65.7,-1190.0,-0.3,111.1,109.3,-33.2,-34.2,-3.9,-53.0,-9.9,-3518.1,107.3,-9.6,-2330.4,-19.8,-30.3,-51.1,0,0,3696,0,111,0,
2.0533,-90.3,-101.5,-1.5,-35.4,-11.4,-77.0,-64.3,-51.1,-892.5,-50.2,64.5,58.5,-97.9,-100.2,-59.5,-102.7,-9.6,-3579.6,43.2,-79.8,-2394.6,-68.0,-82.5,-102.5,0,0,3702,0,112,0,
2.0567,-25.5,-17.4,67.9,47.4,53.9,-2.1,8.4,55.0,-1115.6,-0.3,126.0,119.7,-19.8,-37.5,10.2,-36.5,-9.6,-3514.2,115.7,4.8,-2327.4,-9.3,-21.9,-39.8,0,0,3708,0,113,0,
2.0600,-108.0,-75.1,19.5,-5.4,5.4,-56.9,-47.0,9.6,-1264.4,-41.9,81.2,75.9,-60.2,-83.7,-40.0,-86.0,-9.6,-3533.7,70.7,-49.0,-2347.2,-45.6,-68.7,-82.8,0,0,3714,0,114,0,
2.0633,-63.0,-61.4,35.9,3.6,24.6,-39.8,-32.9,-19.7,-1041.3,-13.8,97.9,95.3,-56.6,-63.6,-20.9,-66.8,-9.6,-3526.2,80.3,-44.5,-2338.5,-27.9,-51.3,-66.7,0,0,3720,0,115,0,
2.0667,-42.9,-14.7,62.2,43.5,39.9,-11.1,-6.9,59.4,-1190.0,-4.5,110.5,104.8,-29.9,-47.1,-1.5,-52.4,-9.6,-3518.7,104.6,-12.8,-2333.1,-22.2,-33.6,-47.2,0,0,3726,0,116,0,
2.0700,-98.7,-79.9,18.9,-12.6,5.1,-67.4,-59.5,-16.4,-966.9,-28.7,80.6,76.4,-78.8,-83.7,-39.4,-90.5,-9.9,-3551.1,66.8,-54.1,-2367.3,-51.8,-77.1,-95.9,0,0,3732,0,117,0,
2.0733,-24.6,-20.1,69.4,36.9,52.7,-16.5,-12.0,15.2,-1190.0,8.7,126.0,120.9,-24.6,-36.6,5.4,-43.7,-9.6,-3512.7,114.5,-12.6,-2329.5,-11.4,-27.9,-47.2,0,0,3738,0,118,0,
2.0767,-92.4,-39.8,33.8,14.4,16.2,-40.1,-36.5,32.6,-1413.1,-27.2,87.8,86.6,-62.0,-67.5,-24.5,-73.4,-9.6,-3536.7,80.0,-35.9,-2347.5,-43.5,-58.2,-77.1,0,0,3744,0,119,0,
2.0800,-64.8,-39.8,43.4,5.4,30.9,-47.3,-35.3,-12.5,-1041.3,-6.0,105.7,103.0,-46.4,-48.9,-11.1,-59.0,-9.3,-3526.2,89.6,-33.5,-2333.1,-15.3,-39.9,-55.0,0,0,3750,0,120,0,
2.0833,-41.1,-62.9,40.1,13.5,23.1,-50.6,-32.6,0.6,-1115.6,-16.1,96.2,92.6,-47.6,-55.5,-12.0,-64.4,-9.6,-3530.1,89.3,-33.5,-2342.7,-27.0,-46.2,-72.9,0,0,3756,0,121,0,
2.0867,-64.8,-41.3,50.0,26.7,33.3,-35.4,-20.9,39.1,-1264.4,-5.4,105.4,98.8,-44.0,-47.7,-4.2,-57.5,-9.9,-3504.9,96.2,-23.3,-2315.4,-21.6,-33.9,-51.1,0,0,3762,0,122,0,
2.0900,-58.2,-70.6,27.5,-6.6,16.5,-53.6,-42.5,-32.9,-892.5,-21.5,92.0,87.2,-72.2,-58.2,-19.1,-73.4,-9.9,-3535.8,77.3,-53.2,-2342.1,-38.4,-51.0,-78.9,0,0,3768,0,123,0,
2.0933,-51.3,-24.5,51.5,31.2,34.5,-20.1,-13.8,40.9,-1338.8,-11.7,105.1,100.0,-40.1,-48.3,-12.3,-62.9,-10.2,-3514.5,98.0,-26.0,-2316.9,-29.7,-37.2,-57.7,0,0,3774,0,124,0,
2.0967,-68.7,-40.1,53.9,28.5,41.1,-20.4,-17.6,36.7,-1041.3,-2.4,111.7,107.2,-42.2,-48.0,-14.6,-61.4,-9.6,-3520.8,100.4,-20.9,-2322.3,-14.4,-36.3,-49.3,0,0,3780,0,125,0,
2.1000,-56.4,-64.4,26.0,-9.3,10.8,-51.5,-45.5,-25.7,-966.9,-36.2,83.6,77.6,-74.9,-79.8,-46.9,-93.4,-9.6,-3553.8,66.2,-65.4,-2360.7,-61.4,-67.8,-93.9,0,0,3786,0,126,0,
2.1033,-23.1,0.9,79.0,62.4,64.7,16.8,19.4,88.7,-1190.0,16.7,127.8,123.0,-10.5,-27.6,9.9,-39.2,-9.9,-3507.0,125.9,4.2,-2309.1,0.0,-14.7,-29.9,0,0,3792,0,127,0,
2.1067,-97.8,-82.0,12.9,-17.4,3.3,-59.0,-55.6,-18.8,-966.9,-43.4,72.0,69.6,-88.0,-88.8,-54.4,-99.1,-9.6,-3576.0,53.0,-62.8,-2375.7,-58.4,-73.2,-87.9,0,0,3798,0,128,0,
2.1100,-36.0,-27.8,60.4,33.9,53.3,-0.6,-2.7,24.8,-1115.6,6.9,114.1,112.0,-39.5,-48.6,-8.1,-54.5,-9.6,-3529.8,101.0,-15.2,-2325.0,-12.6,-30.0,-48.1,0,0,3804,0,129,0,
2.1133,-79.5,-41.0,48.5,28.2,27.6,-37.7,-16.7,50.2,-1264.4,-19.1,100.9,92.3,-38.0,-61.2,-24.2,-72.2,-9.9,-3524.7,91.7,-28.1,-2322.6,-33.0,-46.2,-57.7,0,0,3810,0,130,0,
2.1167,-68.7,-72.1,23.9,-11.7,11.4,-58.1,-48.2,-29.0,-966.9,-31.7,85.4,76.4,-59.0,-77.4,-45.7,-91.7,-9.9,-3561.6,64.1,-60.4,-2352.0,-48.8,-69.6,-95.6,0,0,3816,0,131,0,
2.1200,-18.0,-13.5,70.6,50.1,55.1,-2.1,7.5,48.4,-1190.0,1.2,123.0,117.4,-21.6,-39.3,2.4,-44.9,-9.6,-3510.3,114.5,-4.8,-2301.6,-7.2,-19.5,-43.9,0,0,3822,0,132,0,
2.1233,-99.3,-63.2,26.0,-0.9,7.5,-50.3,-46.1,18.8,-1115.6,-40.4,77.9,69.3,-60.2,-81.6,-46.0,-95.8,-9.3,-3552.3,71.0,-49.0,-2342.4,-53.3,-73.8,-90.0,0,0,3828,0,133,0,
2.1267,-48.6,-35.6,50.6,17.7,39.0,-28.2,-21.5,-5.1,-1115.6,0.6,108.7,101.2,-48.5,-51.3,-13.1,-61.4,-9.9,-3541.5,92.3,-33.2,-2327.4,-21.0,-37.8,-58.6,0,0,3834,0,134,0,
2.1300,-74.7,-29.9,37.4,23.4,26.1,-29.4,-22.1,34.6,-1264.4,-21.5,88.7,83.3,-54.2,-69.3,-26.3,-75.2,-9.6,-3547.8,81.2,-31.7,-2345.4,-47.6,-53.1,-67.6,0,0,3840,0,135,0,
2.1333,-64.5,-56.9,43.1,18.0,29.7,-38.0,-25.7,21.5,-1041.3,-13.5,104.2,97.4,-59.3,-53.7,-18.8,-65.6,-9.9,-3540.9,91.1,-35.0,-2328.0,-31.5,-41.4,-63.1,0,0,3846,0,136,0,
2.1367,-44.7,-44.9,40.4,9.0,24.9,-47.9,-33.2,-10.8,-1041.3,-12.3,99.1,90.2,-56.3,-61.5,-30.8,-77.3,-9.9,-3549.6,84.5,-46.0,-2340.0,-40.2,-55.2,-84.3,0,0,3852,0,137,0,
2.1400,-66.9,-33.8,53.3,37.8,33.3,-20.4,-9.3,52.9,-1487.5,-16.1,105.1,98.8,-37.4,-44.7,-15.8,-64.7,-9.6,-3529.8,101.9,-23.3,-2302.5,-27.3,-33.6,-58.0,0,0,3858,0,138,0,
2.1433,-83.4,-58.4,38.6,0.3,20.1,-48.2,-41.3,-10.5,-1041.3,-16.4,97.4,88.7,-57.5,-62.1,-29.9,-81.5,-9.9,-3547.5,83.0,-44.5,-2322.6,-39.9,-62.7,-67.9,0,0,3864,0,139,0,
2.1467,-64.8,-47.3,42.5,12.0,15.9,-47.6,-30.5,-1.5,-1338.8,-22.4,94.1,85.7,-57.8,-67.2,-29.6,-74.6,-9.9,-3549.6,86.3,-47.8,-2323.2,-45.3,-56.7,-72.3,0,0,3870,0,140,0,
2.1500,-45.6,-12.0,76.3,53.4,53.6,-14.4,0.0,67.5,-1041.3,9.6,126.0,120.6,-2.7,-29.4,2.1,-44.9,-9.6,-3508.8,120.8,4.2,-2280.6,-11.1,-29.1,-46.0,0,0,3876,0,141,0,
2.1533,-87.3,-89.5,12.9,-24.6,-5.7,-77.6,-62.8,-46.3,-966.9,-38.6,75.9,62.7,-77.9,-83.1,-54.4,-98.8,-9.6,-3560.4,57.2,-78.6,-2331.3,-53.3,-81.0,-98.3,0,0,3882,0,142,0,
2.1567,-26.1,-3.6,81.4,59.1,57.5,-0.3,10.8,60.9,-1115.6,15.8,132.0,120.0,-10.2,-29.4,9.6,-40.7,-9.6,-3484.2,123.5,-6.6,-2259.6,-4.8,-23.1,-38.3,0,0,3888,0,143,0,
2.1600,-106.2,-61.1,35.3,6.3,9.3,-58.7,-40.4,17.3,-1264.4,-32.0,86.6,77.3,-64.1,-75.6,-40.3,-88.4,-9.9,-3528.6,76.1,-47.5,-2293.2,-48.5,-66.9,-84.6,0,0,3894,0,144,0,
2.1633,-65.4,-43.1,45.8,7.5,26.1,-43.1,-27.8,-14.3,-1041.3,-12.6,100.3,90.5,-47.0,-60.6,-26.0,-72.5,-9.9,-3543.9,84.2,-44.8,-2306.7,-33.3,-56.1,-74.4,0,0,3900,0,145,0,
2.1667,-38.7,-13.8,65.5,47.7,42.0,-15.3,3.6,64.8,-1264.4,-5.4,112.3,103.9,-33.5,-41.4,0.0,-51.5,-9.6,-3529.2,106.4,-14.0,-2280.9,-15.6,-35.1,-52.0,0,0,3906,0,146,0,
2.1700,-98.7,-74.5,23.0,-9.6,5.7,-59.6,-44.9,-7.2,-1115.6,-29.3,79.7,68.1,-76.1,-83.7,-46.0,-90.5,-9.6,-3550.2,65.0,-61.3,-2311.2,-50.9,-69.6,-97.7,0,0,3912,0,147,0,
2.1733,-27.0,-22.2,68.5,37.8,52.7,-7.8,3.6,24.5,-1041.3,13.2,126.0,117.4,-30.2,-37.5,0.0,-45.5,-9.6,-3517.8,108.2,-14.6,-2271.6,-4.8,-26.4,-42.1,0,0,3918,0,148,0,
2.1767,-92.4,-43.7,42.8,24.6,24.6,-32.7,-26.0,43.3,-1338.8,-12.6,94.7,86.9,-59.6,-70.5,-28.7,-79.4,-9.6,-3522.3,85.1,-27.8,-2268.0,-39.6,-55.5,-70.8,0,0,3924,0,149,0,
2.1800,-59.1,-41.9,60.7,23.7,46.7,-26.1,-17.0,8.4,-1041.3,12.9,121.5,114.1,-40.4,-46.2,-11.7,-56.9,-9.9,-3489.9,102.5,-17.3,-2243.1,-6.3,-35.1,-44.5,0,0,3930,0,150,0,
2.1833,-35.4,-31.7,52.7,25.8,31.5,-27.6,-18.5,21.2,-1190.0,-6.0,105.4,97.1,-39.8,-54.9,-14.6,-65.6,-9.9,-3525.6,94.4,-25.4,-2259.6,-25.8,-48.3,-59.8,0,0,3936,0,151,0,
2.1867,-60.3,-24.8,59.8,35.4,36.9,-24.9,-13.8,51.4,-1264.4,-2.7,113.8,105.1,-24.0,-44.4,-11.1,-58.1,-9.6,-3499.2,104.6,-18.8,-2239.8,-19.5,-39.0,-53.8,0,0,3942,0,152,0,
2.1900,-63.0,-62.3,32.6,-1.2,22.2,-23.7,-38.9,-25.7,-892.5,-20.9,96.5,86.9,-61.1,-65.4,-29.0,-75.2,-9.6,-3530.7,76.1,-49.9,-2271.3,-34.2,-59.7,-79.5,0,0,3948,0,153,0,
2.1933,-56.7,-29.6,52.1,30.3,31.8,-39.8,-18.2,34.1,-1338.8,-5.7,104.2,97.7,-50.6,-50.7,-4.5,-59.3,-9.6,-3526.8,98.3,-19.4,-2263.5,-25.2,-44.4,-49.0,0,0,3954,0,154,0,
2.1967,-76.5,-41.9,52.7,26.7,39.3,-39.5,-23.0,26.0,-1115.6,8.1,115.0,109.3,-49.1,-52.2,-14.3,-54.8,-9.6,-3509.1,97.7,-15.5,-2246.7,-11.1,-40.5,-52.3,0,0,3960,0,155,0,
2.2000,-54.3,-64.4,27.5,-10.2,10.8,-64.1,-51.4,-41.8,-1041.3,-24.8,86.9,81.2,-63.8,-74.7,-37.7,-81.5,-9.6,-3528.6,72.8,-53.8,-2259.9,-34.8,-66.0,-83.7,0,0,3966,0,156,0,
2.2033,-24.0,0.3,83.8,64.8,66.5,8.4,12.6,73.5,-1264.4,37.7,138.0,131.4,-2.1,-24.6,17.9,-30.6,-9.6,-3465.9,130.7,20.0,-2190.6,5.7,-12.6,-27.8,0,0,3972,0,157,0,
2.2067,-92.7,-83.5,16.5,-18.3,1.8,-74.0,-59.5,-29.3,-1041.3,-29.9,80.9,74.7,-66.2,-75.9,-43.3,-89.9,-9.6,-3530.1,62.3,-55.9,-2255.4,-40.5,-72.6,-91.8,0,0,3978,0,158,0,
2.2100,-30.9,-20.1,61.0,33.6,49.4,-5.1,-3.0,18.8,-1115.6,12.0,115.6,116.2,-18.9,-35.1,3.0,-44.0,-9.6,-3512.4,99.2,-12.3,-2241.9,-3.3,-29.4,-60.7,0,0,3984,0,159,0,
2.2133,-73.8,-28.7,46.1,28.2,31.5,-24.3,-15.3,53.2,-1413.1,-1.8,94.1,92.6,-27.0,-46.8,-10.8,-58.7,-9.9,-3486.9,87.5,-23.3,-2211.0,-19.8,-39.3,-49.6,0,0,3990,0,160,0,
2.2167,-66.6,-70.9,33.2,-4.8,16.8,-53.3,-43.4,-24.2,-892.5,-10.2,95.9,87.5,-62.3,-67.5,-38.3,-79.1,-9.6,-3517.5,80.0,-51.4,-2247.9,-33.9,-60.0,-70.8,0,0,3996,0,161,0,
2.2200,-9.9,18.3,82.6,56.4,57.8,5.1,14.7,56.2,-1190.0,21.2,132.9,123.9,-11.1,-18.9,11.1,-36.2,-9.3,-3482.7,130.1,-5.1,-2206.8,6.6,-15.3,-27.5,0,0,4002,0,162,0,
2.2233,-87.9,-41.6,35.3,11.1,15.3,-40.4,-32.9,23.0,-1190.0,-18.8,93.5,82.4,-64.7,-72.0,-41.2,-84.2,-9.9,-3524.7,86.0,-43.6,-2252.7,-40.5,-57.9,-80.4,0,0,4008,0,163,0,
2.2267,-37.8,-27.2,61.3,25.8,45.5,-18.3,-3.0,1.5,-966.9,17.0,123.6,116.5,-38.0,-42.0,-6.3,-48.8,-9.6,-3506.4,109.4,-26.9,-2230.8,-1.2,-24.6,-45.1,0,0,4014,0,164,0,
2.2300,-67.8,-54.8,51.2,30.0,26.4,-21.6,-9.6,36.1,-1338.8,-1.2,103.0,92.3,-31.4,-62.4,-19.4,-67.4,-9.9,-3513.6,98.9,-33.5,-2243.4,-22.8,-42.0,-56.8,0,0,4020,0,165,0,
2.2333,-55.5,-46.1,56.6,20.4,35.7,-23.7,-10.5,24.5,-1041.3,5.4,114.7,109.9,-37.7,-48.0,-12.0,-56.9,-9.9,-3504.6,102.2,-23.9,-2239.2,-11.1,-34.8,-47.2,0,0,4026,0,166,0,
2.2367,-38.1,-55.1,40.7,6.0,24.9,-29.4,-19.4,-11.6,-1115.6,-10.5,98.8,95.0,-56.0,-62.4,-22.1,-64.7,-9.9,-3537.3,85.1,-42.7,-2278.5,-35.1,-45.6,-58.6,0,0,4032,0,167,0,
2.2400,-55.2,-23.9,55.1,37.8,34.5,-18.0,1.5,58.5,-1413.1,8.1,106.3,103.3,-37.4,-51.0,-8.7,-55.7,-9.6,-3512.4,99.2,-24.2,-2245.2,-13.8,-28.8,-60.1,0,0,4038,0,168,0,
2.2433,-75.0,-58.1,36.2,3.6,21.6,-47.9,-31.4,-3.9,-966.9,-13.2,96.8,93.2,-57.5,-65.7,-29.6,-72.8,-9.3,-3526.5,80.9,-49.3,-2277.9,-26.1,-50.1,-61.0,0,0,4044,0,169,0,
2.2467,-56.7,-36.8,38.0,12.6,21.0,-36.9,-24.8,7.8,-1115.6,-15.2,91.7,85.4,-59.3,-64.8,-23.6,-73.7,-10.2,-3535.5,86.0,-52.3,-2291.1,-35.7,-57.0,-66.1,0,0,4050,0,170,0,
2.2500,-42.6,-13.2,67.6,49.8,48.8,-2.4,4.8,72.3,-1264.4,15.2,120.9,114.1,-17.7,-38.1,2.4,-46.4,-9.6,-3505.5,113.9,-9.9,-2261.1,-8.4,-26.4,-44.5,0,0,4056,0,171,0,
2.2533,-81.0,-85.6,15.3,-18.3,4.5,-54.8,-53.2,-43.3,-966.9,-30.2,75.3,70.8,-77.3,-90.0,-53.8,-100.6,-9.9,-3552.6,58.7,-76.2,-2328.6,-56.6,-78.9,-92.4,0,0,4062,0,172,0,
2.2567,-13.8,0.6,81.7,61.2,57.5,-3.6,12.9,59.4,-1264.4,24.5,133.5,128.1,-6.0,-24.9,12.9,-38.9,-9.9,-3488.4,128.0,-4.5,-2257.2,9.6,-18.9,-40.1,0,0,4068,0,173,0,
2.2600,-93.0,-62.0,36.8,11.1,15.0,-46.4,-35.6,16.7,-1190.0,-10.2,91.1,85.7,-61.7,-69.9,-34.7,-86.6,-9.9,-3530.1,78.5,-46.3,-2306.1,-31.8,-58.8,-73.8,0,0,4074,0,174,0,
2.2633,-48.9,-42.8,52.1,15.3,31.5,-36.3,-24.5,-10.5,-966.9,0.3,109.0,103.0,-41.6,-53.1,-20.3,-66.8,-9.9,-3540.3,95.3,-41.8,-2320.5,-18.3,-45.3,-50.5,0,0,4080,0,175,0,
2.2667,-25.2,-2.7,79.6,60.0,56.6,-2.1,6.9,65.7,-1190.0,17.6,128.4,121.8,-12.3,-33.9,3.9,-43.7,-9.6,-3500.1,123.5,-0.3,-2283.6,0.0,-18.6,-36.8,0,0,4086,0,176,0,
2.2700,-85.5,-77.2,27.5,-2.7,11.1,-55.1,-47.9,-12.5,-966.9,-16.7,89.0,84.2,-68.3,-81.0,-46.9,-87.5,-9.9,-3525.3,73.7,-49.6,-2315.4,-28.5,-63.6,-74.7,0,0,4092,0,177,0,
2.2733,-9.6,-16.8,75.7,46.2,65.0,19.8,10.8,20.6,-1115.6,17.0,132.9,129.6,-22.8,-28.8,5.1,-40.1,-9.3,-3494.1,119.6,-3.0,-2291.4,10.8,-18.3,-33.8,0,0,4098,0,178,0,
2.2767,-81.3,-40.4,46.4,25.8,23.7,-35.1,-23.9,37.9,-1264.4,-15.5,95.9,89.9,-46.4,-63.0,-28.1,-75.8,-9.6,-3516.9,93.5,-33.8,-2317.8,-25.8,-54.3,-62.2,0,0,4104,0,179,0,
2.2800,-54.0,-43.1,59.6,18.6,42.3,-37.7,-17.3,0.3,-1041.3,1.2,118.0,114.7,-35.6,-47.4,-14.0,-56.6,-9.3,-3525.0,103.1,-29.3,-2328.0,-5.4,-34.2,-45.1,0,0,4110,0,180,0,
2.2833,-34.2,-34.1,51.8,23.4,32.1,-27.9,-16.2,13.4,-1190.0,-2.7,104.2,97.9,-48.2,-63.9,-20.0,-67.7,-9.9,-3538.2,98.6,-37.4,-2341.5,-24.6,-47.4,-57.7,0,0,4116,0,181,0,
2.2867,-57.3,-26.9,60.1,35.1,43.8,-18.6,-7.5,48.4,-1190.0,3.9,112.3,110.2,-44.9,-48.0,-3.6,-58.4,-9.6,-3511.2,105.2,-17.6,-2316.9,-15.0,-39.0,-51.4,0,0,4122,0,182,0,
2.2900,-51.9,-57.8,42.5,4.2,31.8,-28.5,-25.1,-20.9,-1041.3,-8.4,102.1,95.9,-67.7,-64.8,-23.6,-69.8,-10.2,-3540.0,86.6,-50.8,-2352.3,-22.5,-47.7,-64.9,0,0,4128,0,183,0,
2.2933,-56.4,-32.3,53.9,35.7,43.2,-9.9,-0.3,41.2,-1413.1,3.6,107.2,102.7,-39.5,-60.0,-18.5,-62.0,-9.6,-3522.3,102.2,-26.0,-2325.3,-17.4,-36.9,-47.2,0,0,4134,0,184,0,
2.2967,-64.5,-41.3,60.4,28.8,45.2,-29.1,-11.1,36.4,-1115.6,14.4,117.1,113.5,-27.3,-47.4,-11.1,-60.2,-9.6,-3521.4,104.0,-21.2,-2328.6,-15.0,-39.9,-51.7,0,0,4140,0,185,0,
2.3000,-48.0,-63.8,32.0,-4.5,16.8,-53.3,-39.5,-28.1,-966.9,-24.8,93.2,83.3,-57.5,-75.3,-36.2,-86.6,-9.9,-3549.3,80.6,-60.1,-2360.4,-36.3,-67.2,-77.1,0,0,4146,0,186,0,
2.3033,-16.5,3.6,95.5,73.8,74.6,11.1,18.5,83.3,-1338.8,36.5,144.8,138.6,-6.3,-13.5,16.1,-36.5,-9.3,-3492.9,139.9,13.1,-2302.2,13.8,-18.0,-31.1,0,0,4152,0,187,0,
2.3067,-86.4,-68.3,30.2,-3.3,12.9,-65.6,-55.0,-19.4,-1115.6,-29.0,92.3,83.3,-66.5,-69.0,-42.7,-94.0,-9.9,-3549.6,72.8,-59.5,-2360.4,-39.3,-74.1,-86.4,0,0,4158,0,188,0,
2.3100,-23.7,-13.2,76.0,47.4,62.9,-3.6,-1.2,26.0,-1115.6,17.0,134.1,126.6,-20.4,-33.0,8.1,-45.5,-9.6,-3522.0,122.0,-11.7,-2331.9,3.0,-24.9,-35.3,0,0,4164,0,189,0,
2.3133,-69.9,-25.4,64.6,45.9,47.6,-19.2,-14.1,56.2,-1338.8,3.9,115.6,115.0,-29.9,-44.1,-3.3,-57.5,-9.3,-3519.3,110.9,-8.7,-2337.6,-5.7,-38.1,-47.8,0,0,4170,0,190,0,
2.3167,-60.6,-63.5,41.9,1.2,28.5,-55.4,-48.8,-27.2,-892.5,-1.2,101.2,99.7,-56.9,-63.0,-28.1,-79.1,-9.6,-3549.9,83.0,-40.6,-2370.9,-30.0,-58.5,-68.4,0,0,4176,0,191,0,
2.3200,-14.7,-4.2,83.2,60.3,67.1,4.8,7.2,45.7,-1264.4,44.2,138.9,135.0,-10.8,-27.6,17.0,-30.9,-9.6,-3501.6,127.4,-3.6,-2319.6,12.9,-13.2,-24.5,0,0,4182,0,192,0,
2.3233,-96.3,-60.2,33.8,12.9,24.0,-46.7,-43.1,11.9,-1264.4,-8.1,93.5,92.0,-62.3,-68.1,-26.9,-75.5,-9.6,-3551.1,80.9,-38.5,-2360.1,-22.2,-56.7,-69.3,0,0,4188,0,193,0,
2.3267,-37.5,-35.0,66.7,30.9,58.7,-20.4,-9.3,-6.3,-966.9,22.7,128.4,128.7,-33.8,-32.1,3.6,-43.1,-9.6,-3515.1,110.0,-17.3,-2326.5,10.2,-20.7,-39.2,0,0,4194,0,194,0,
2.3300,-59.7,-15.6,52.4,33.3,39.3,-23.4,-16.7,34.3,-1264.4,-3.0,104.8,102.1,-44.9,-52.5,-13.4,-61.4,-9.6,-3517.2,96.2,-22.7,-2338.8,-16.8,-39.6,-55.3,0,0,4200,0,195,0,
2.3333,-55.8,-48.5,55.7,24.0,43.5,-20.1,-15.3,14.3,-966.9,4.8,112.9,111.1,-38.0,-46.5,-11.1,-58.7,-9.6,-3517.2,97.1,-23.3,-2334.6,-6.0,-31.2,-49.6,0,0,4206,0,196,0,
2.3367,-30.3,-46.7,48.5,16.5,33.6,-36.3,-23.0,-17.6,-1041.3,10.8,106.3,103.9,-45.8,-54.0,-16.1,-60.5,-9.9,-3528.9,91.4,-37.1,-2341.5,-10.8,-39.3,-58.6,0,0,4212,0,197,0,
2.3400,-47.4,-25.4,64.0,47.4,48.8,-9.9,-1.2,57.3,-1338.8,13.8,112.6,115.0,-27.6,-46.8,-5.4,-50.3,-9.3,-3510.0,108.5,-11.4,-2326.2,-4.8,-31.2,-43.9,0,0,4218,0,198,0,
2.3433,-58.2,-52.1,54.8,24.3,44.3,-36.3,-23.9,-2.7,-966.9,3.6,114.1,112.3,-37.7,-52.8,-21.8,-62.6,-9.6,-3527.4,97.7,-30.2,-2340.9,-16.2,-39.3,-51.7,0,0,4224,0,199,0,
2.3467,-41.7,-45.2,48.8,25.5,39.0,-30.9,-17.9,0.9,-1115.6,-6.0,104.2,104.5,-42.8,-57.3,-22.4,-68.3,-9.6,-3527.1,89.0,-29.6,-2339.1,-24.0,-46.2,-50.2,0,0,4230,0,200,0,
2.3500,-23.1,-12.9,86.8,68.4,68.3,-3.6,9.0,68.7,-1115.6,29.3,140.7,138.6,-6.3,-26.7,8.7,-38.9,-9.6,-3475.5,129.2,8.4,-2302.2,18.3,-17.4,-32.0,0,0,4236,0,201,0,
2.3533,-66.0,-86.8,28.4,-14.4,10.8,-68.6,-57.1,-48.1,-966.9,-10.2,85.7,81.8,-68.6,-81.9,-47.5,-94.3,-9.9,-3556.2,69.8,-69.6,-2382.0,-39.9,-73.2,-85.8,0,0,4242,0,202,0,
2.3567,3.3,0.9,93.4,66.9,71.0,7.8,17.3,55.6,-1190.0,38.3,146.9,141.3,1.5,-11.7,17.0,-32.3,-9.9,-3484.5,140.5,6.6,-2299.5,9.6,-8.4,-30.2,0,0,4248,0,203,0,
2.3600,-77.7,-31.4,45.8,12.9,26.1,-41.0,-33.2,14.6,-1115.6,-20.3,97.9,97.4,-54.2,-66.6,-26.3,-80.0,-9.6,-3516.9,80.3,-36.2,-2339.7,-28.2,-56.4,-74.7,0,0,4254,0,204,0,
2.3633,-41.4,-50.6,50.6,15.6,43.5,-0.9,-20.0,-18.8,-966.9,-2.4,112.3,108.4,-46.1,-55.2,-14.9,-67.1,-9.6,-3537.6,93.5,-39.4,-2342.7,-21.3,-44.4,-68.4,0,0,4260,0,205,0,
2.3667,-13.5,-33.2,76.3,58.8,59.3,-7.5,9.6,56.2,-1190.0,30.2,132.0,129.0,-18.3,-31.2,10.2,-40.1,-9.6,-3495.6,123.5,5.4,-2305.2,9.0,-12.9,-32.3,0,0,4266,0,206,0,
2.3700,-72.0,-75.7,32.3,1.5,22.2,-56.9,-44.0,-15.5,-966.9,-14.4,94.4,93.8,-71.0,-73.2,-37.1,-85.1,-9.6,-3533.7,77.6,-47.8,-2349.9,-34.2,-53.7,-71.4,0,0,4272,0,207,0,
2.3733,1.2,-10.5,85.0,52.5,71.3,-4.8,6.0,20.9,-966.9,30.5,142.1,140.7,-11.1,-22.5,12.6,-37.7,-9.6,-3503.4,128.3,-1.8,-2323.5,19.2,-16.2,-11.4,0,0,4278,0,208,0,
2.3767,-69.0,-35.9,54.2,33.3,32.4,-32.4,-21.2,38.8,-1413.1,-6.6,106.9,109.9,-29.3,-56.1,-19.4,-71.3,-9.6,-3534.0,101.0,-20.0,-2339.4,-26.1,-47.1,-61.3,0,0,4284,0,209,0,
2.3800,-45.6,-43.4,60.7,25.8,47.6,-29.7,-17.0,-3.3,-892.5,19.1,124.5,125.1,-28.2,-41.7,-7.5,-56.0,-9.6,-3509.1,107.3,-18.2,-2319.6,7.2,-29.7,-40.4,0,0,4290,0,210,0,
2.3833,-24.0,-32.9,53.0,23.4,34.5,-23.7,-13.5,7.2,-1190.0,4.8,104.8,104.2,-38.6,-56.7,-18.2,-66.2,-9.3,-3540.3,94.7,-34.7,-2358.6,-26.4,-40.2,-49.0,0,0,4296,0,211,0,
2.3867,-49.8,-31.7,58.7,33.9,42.6,-19.8,-13.5,43.6,-1190.0,13.2,112.0,109.6,-27.9,-46.8,-11.7,-60.8,-9.6,-3517.8,102.8,-14.0,-2327.4,-3.6,-40.5,-65.5,0,0,4302,0,212,0,
2.3900,-38.7,-61.4,46.1,2.1,31.5,-41.3,-34.1,-30.5,-966.9,0.3,107.5,102.7,-41.0,-54.0,-24.8,-74.0,-9.6,-3536.1,87.2,-42.7,-2353.5,-22.8,-47.4,-62.5,0,0,4308,0,213,0,
2.3933,-36.3,-20.7,64.0,40.8,42.0,-31.2,-16.7,33.5,-1264.4,13.5,118.0,112.6,-32.3,-46.5,-10.8,-61.1,-9.3,-3520.2,110.9,-24.8,-2329.5,-10.2,-40.8,-52.3,0,0,4314,0,214,0,
2.3967,-54.3,-35.9,64.9,32.1,46.1,-28.8,-20.0,26.0,-1115.6,16.1,122.1,119.7,-32.6,-38.7,-7.5,-60.2,-9.9,-3503.4,110.3,-19.4,-2313.9,-9.0,-34.5,-51.7,0,0,4320,0,215,0,
2.4000,-39.3,-61.4,36.2,-2.7,18.6,-60.2,-50.5,-40.3,-1041.3,-15.8,91.1,89.9,-53.0,-68.4,-37.7,-89.6,-9.3,-3549.9,80.3,-57.7,-2361.9,-37.8,-69.3,-82.8,0,0,4326,0,216,0,
